Mar. 29, 2018   10:26:03
Chronopotentiometry
File: c:\users\lingd\google drive\Data Source:  Experiment
Instrument Model:  CHI660E
Header: 
Note: 

Cathodic Current (A) = 0.1338
Anodic Current (A) = 0.1338
Init P/N = N
Data Storage Interval (s) = 0.001
High E Limit (V) = 0
Low E Limit (V) = -1
Cathodic Time (s) = 10
Anodic Time (s) = 10
Current Switching Polarity = Potential
Segment = 5

Time/sec, Potential/V

1.000e-3, -8.563e-1
2.000e-3, -8.556e-1
3.000e-3, -8.557e-1
4.000e-3, -8.589e-1
5.000e-3, -8.629e-1
6.000e-3, -8.670e-1
7.000e-3, -8.710e-1
8.000e-3, -8.749e-1
9.000e-3, -8.785e-1
1.000e-2, -8.821e-1
1.100e-2, -8.854e-1
1.200e-2, -8.887e-1
1.300e-2, -8.918e-1
1.400e-2, -8.948e-1
1.500e-2, -8.977e-1
1.600e-2, -9.006e-1
1.700e-2, -9.033e-1
1.800e-2, -9.060e-1
1.900e-2, -9.085e-1
2.000e-2, -9.110e-1
2.100e-2, -9.135e-1
2.200e-2, -9.159e-1
2.300e-2, -9.183e-1
2.400e-2, -9.205e-1
2.500e-2, -9.228e-1
2.600e-2, -9.249e-1
2.700e-2, -9.272e-1
2.800e-2, -9.292e-1
2.900e-2, -9.313e-1
3.000e-2, -9.333e-1
3.100e-2, -9.353e-1
3.200e-2, -9.373e-1
3.300e-2, -9.392e-1
3.400e-2, -9.411e-1
3.500e-2, -9.429e-1
3.600e-2, -9.447e-1
3.700e-2, -9.465e-1
3.800e-2, -9.483e-1
3.900e-2, -9.500e-1
4.000e-2, -9.517e-1
4.100e-2, -9.534e-1
4.200e-2, -9.551e-1
4.300e-2, -9.567e-1
4.400e-2, -9.584e-1
4.500e-2, -9.600e-1
4.600e-2, -9.615e-1
4.700e-2, -9.631e-1
4.800e-2, -9.646e-1
4.900e-2, -9.662e-1
5.000e-2, -9.676e-1
5.100e-2, -9.691e-1
5.200e-2, -9.706e-1
5.300e-2, -9.720e-1
5.400e-2, -9.734e-1
5.500e-2, -9.749e-1
5.600e-2, -9.763e-1
5.700e-2, -9.777e-1
5.800e-2, -9.791e-1
5.900e-2, -9.804e-1
6.000e-2, -9.818e-1
6.100e-2, -9.831e-1
6.200e-2, -9.844e-1
6.300e-2, -9.857e-1
6.400e-2, -9.870e-1
6.500e-2, -9.883e-1
6.600e-2, -9.896e-1
6.700e-2, -9.908e-1
6.800e-2, -9.921e-1
6.900e-2, -9.933e-1
7.000e-2, -9.945e-1
7.100e-2, -9.957e-1
7.200e-2, -9.969e-1
7.300e-2, -9.981e-1
7.400e-2, -9.993e-1
7.500e-2, -6.785e-1
7.600e-2, -6.638e-1
7.700e-2, -6.526e-1
7.800e-2, -6.401e-1
7.900e-2, -6.323e-1
8.000e-2, -6.255e-1
8.100e-2, -6.194e-1
8.200e-2, -6.140e-1
8.300e-2, -6.089e-1
8.400e-2, -6.036e-1
8.500e-2, -5.984e-1
8.600e-2, -5.934e-1
8.700e-2, -5.883e-1
8.800e-2, -5.834e-1
8.900e-2, -5.787e-1
9.000e-2, -5.742e-1
9.100e-2, -5.700e-1
9.200e-2, -5.658e-1
9.300e-2, -5.619e-1
9.400e-2, -5.581e-1
9.500e-2, -5.545e-1
9.600e-2, -5.509e-1
9.700e-2, -5.475e-1
9.800e-2, -5.441e-1
9.900e-2, -5.410e-1
1.000e-1, -5.379e-1
1.010e-1, -5.349e-1
1.020e-1, -5.319e-1
1.030e-1, -5.291e-1
1.040e-1, -5.263e-1
1.050e-1, -5.236e-1
1.060e-1, -5.210e-1
1.070e-1, -5.184e-1
1.080e-1, -5.160e-1
1.090e-1, -5.135e-1
1.100e-1, -5.111e-1
1.110e-1, -5.088e-1
1.120e-1, -5.065e-1
1.130e-1, -5.043e-1
1.140e-1, -5.021e-1
1.150e-1, -4.999e-1
1.160e-1, -4.978e-1
1.170e-1, -4.957e-1
1.180e-1, -4.938e-1
1.190e-1, -4.917e-1
1.200e-1, -4.898e-1
1.210e-1, -4.879e-1
1.220e-1, -4.860e-1
1.230e-1, -4.842e-1
1.240e-1, -4.823e-1
1.250e-1, -4.806e-1
1.260e-1, -4.788e-1
1.270e-1, -4.771e-1
1.280e-1, -4.754e-1
1.290e-1, -4.737e-1
1.300e-1, -4.721e-1
1.310e-1, -4.704e-1
1.320e-1, -4.688e-1
1.330e-1, -4.673e-1
1.340e-1, -4.657e-1
1.350e-1, -4.642e-1
1.360e-1, -4.627e-1
1.370e-1, -4.612e-1
1.380e-1, -4.597e-1
1.390e-1, -4.582e-1
1.400e-1, -4.568e-1
1.410e-1, -4.554e-1
1.420e-1, -4.540e-1
1.430e-1, -4.526e-1
1.440e-1, -4.513e-1
1.450e-1, -4.499e-1
1.460e-1, -4.485e-1
1.470e-1, -4.472e-1
1.480e-1, -4.459e-1
1.490e-1, -4.446e-1
1.500e-1, -4.433e-1
1.510e-1, -4.420e-1
1.520e-1, -4.408e-1
1.530e-1, -4.396e-1
1.540e-1, -4.383e-1
1.550e-1, -4.371e-1
1.560e-1, -4.359e-1
1.570e-1, -4.347e-1
1.580e-1, -4.335e-1
1.590e-1, -4.323e-1
1.600e-1, -4.312e-1
1.610e-1, -4.300e-1
1.620e-1, -4.289e-1
1.630e-1, -4.277e-1
1.640e-1, -4.266e-1
1.650e-1, -4.254e-1
1.660e-1, -4.244e-1
1.670e-1, -4.232e-1
1.680e-1, -4.221e-1
1.690e-1, -4.211e-1
1.700e-1, -4.200e-1
1.710e-1, -4.190e-1
1.720e-1, -4.179e-1
1.730e-1, -4.169e-1
1.740e-1, -4.159e-1
1.750e-1, -4.149e-1
1.760e-1, -4.140e-1
1.770e-1, -4.129e-1
1.780e-1, -4.120e-1
1.790e-1, -4.111e-1
1.800e-1, -4.101e-1
1.810e-1, -4.093e-1
1.820e-1, -4.085e-1
1.830e-1, -4.077e-1
1.840e-1, -4.068e-1
1.850e-1, -4.060e-1
1.860e-1, -4.052e-1
1.870e-1, -4.044e-1
1.880e-1, -4.036e-1
1.890e-1, -4.028e-1
1.900e-1, -4.020e-1
1.910e-1, -4.011e-1
1.920e-1, -4.003e-1
1.930e-1, -3.994e-1
1.940e-1, -3.986e-1
1.950e-1, -3.978e-1
1.960e-1, -3.969e-1
1.970e-1, -3.961e-1
1.980e-1, -3.952e-1
1.990e-1, -3.943e-1
2.000e-1, -3.935e-1
2.010e-1, -3.925e-1
2.020e-1, -3.916e-1
2.030e-1, -3.907e-1
2.040e-1, -3.897e-1
2.050e-1, -3.886e-1
2.060e-1, -3.876e-1
2.070e-1, -3.865e-1
2.080e-1, -3.853e-1
2.090e-1, -3.843e-1
2.100e-1, -3.833e-1
2.110e-1, -3.823e-1
2.120e-1, -3.815e-1
2.130e-1, -3.806e-1
2.140e-1, -3.798e-1
2.150e-1, -3.792e-1
2.160e-1, -3.786e-1
2.170e-1, -3.781e-1
2.180e-1, -3.776e-1
2.190e-1, -3.770e-1
2.200e-1, -3.764e-1
2.210e-1, -3.758e-1
2.220e-1, -3.752e-1
2.230e-1, -3.747e-1
2.240e-1, -3.744e-1
2.250e-1, -3.740e-1
2.260e-1, -3.736e-1
2.270e-1, -3.732e-1
2.280e-1, -3.727e-1
2.290e-1, -3.723e-1
2.300e-1, -3.718e-1
2.310e-1, -3.712e-1
2.320e-1, -3.707e-1
2.330e-1, -3.701e-1
2.340e-1, -3.695e-1
2.350e-1, -3.690e-1
2.360e-1, -3.684e-1
2.370e-1, -3.678e-1
2.380e-1, -3.672e-1
2.390e-1, -3.666e-1
2.400e-1, -3.660e-1
2.410e-1, -3.654e-1
2.420e-1, -3.648e-1
2.430e-1, -3.642e-1
2.440e-1, -3.636e-1
2.450e-1, -3.630e-1
2.460e-1, -3.625e-1
2.470e-1, -3.618e-1
2.480e-1, -3.612e-1
2.490e-1, -3.607e-1
2.500e-1, -3.601e-1
2.510e-1, -3.595e-1
2.520e-1, -3.589e-1
2.530e-1, -3.584e-1
2.540e-1, -3.578e-1
2.550e-1, -3.572e-1
2.560e-1, -3.566e-1
2.570e-1, -3.561e-1
2.580e-1, -3.555e-1
2.590e-1, -3.549e-1
2.600e-1, -3.543e-1
2.610e-1, -3.538e-1
2.620e-1, -3.532e-1
2.630e-1, -3.527e-1
2.640e-1, -3.521e-1
2.650e-1, -3.516e-1
2.660e-1, -3.510e-1
2.670e-1, -3.504e-1
2.680e-1, -3.499e-1
2.690e-1, -3.493e-1
2.700e-1, -3.488e-1
2.710e-1, -3.482e-1
2.720e-1, -3.477e-1
2.730e-1, -3.471e-1
2.740e-1, -3.466e-1
2.750e-1, -3.461e-1
2.760e-1, -3.455e-1
2.770e-1, -3.450e-1
2.780e-1, -3.444e-1
2.790e-1, -3.439e-1
2.800e-1, -3.434e-1
2.810e-1, -3.429e-1
2.820e-1, -3.424e-1
2.830e-1, -3.418e-1
2.840e-1, -3.413e-1
2.850e-1, -3.408e-1
2.860e-1, -3.402e-1
2.870e-1, -3.398e-1
2.880e-1, -3.392e-1
2.890e-1, -3.387e-1
2.900e-1, -3.382e-1
2.910e-1, -3.377e-1
2.920e-1, -3.372e-1
2.930e-1, -3.367e-1
2.940e-1, -3.362e-1
2.950e-1, -3.356e-1
2.960e-1, -3.351e-1
2.970e-1, -3.347e-1
2.980e-1, -3.341e-1
2.990e-1, -3.337e-1
3.000e-1, -3.331e-1
3.010e-1, -3.327e-1
3.020e-1, -3.322e-1
3.030e-1, -3.317e-1
3.040e-1, -3.312e-1
3.050e-1, -3.307e-1
3.060e-1, -3.302e-1
3.070e-1, -3.297e-1
3.080e-1, -3.292e-1
3.090e-1, -3.287e-1
3.100e-1, -3.282e-1
3.110e-1, -3.278e-1
3.120e-1, -3.273e-1
3.130e-1, -3.268e-1
3.140e-1, -3.263e-1
3.150e-1, -3.259e-1
3.160e-1, -3.254e-1
3.170e-1, -3.249e-1
3.180e-1, -3.244e-1
3.190e-1, -3.239e-1
3.200e-1, -3.235e-1
3.210e-1, -3.230e-1
3.220e-1, -3.225e-1
3.230e-1, -3.221e-1
3.240e-1, -3.216e-1
3.250e-1, -3.211e-1
3.260e-1, -3.207e-1
3.270e-1, -3.202e-1
3.280e-1, -3.198e-1
3.290e-1, -3.193e-1
3.300e-1, -3.189e-1
3.310e-1, -3.184e-1
3.320e-1, -3.179e-1
3.330e-1, -3.175e-1
3.340e-1, -3.170e-1
3.350e-1, -3.166e-1
3.360e-1, -3.161e-1
3.370e-1, -3.157e-1
3.380e-1, -3.152e-1
3.390e-1, -3.148e-1
3.400e-1, -3.144e-1
3.410e-1, -3.139e-1
3.420e-1, -3.134e-1
3.430e-1, -3.130e-1
3.440e-1, -3.126e-1
3.450e-1, -3.122e-1
3.460e-1, -3.117e-1
3.470e-1, -3.113e-1
3.480e-1, -3.108e-1
3.490e-1, -3.103e-1
3.500e-1, -3.099e-1
3.510e-1, -3.095e-1
3.520e-1, -3.090e-1
3.530e-1, -3.086e-1
3.540e-1, -3.081e-1
3.550e-1, -3.077e-1
3.560e-1, -3.073e-1
3.570e-1, -3.069e-1
3.580e-1, -3.064e-1
3.590e-1, -3.060e-1
3.600e-1, -3.055e-1
3.610e-1, -3.051e-1
3.620e-1, -3.048e-1
3.630e-1, -3.043e-1
3.640e-1, -3.039e-1
3.650e-1, -3.034e-1
3.660e-1, -3.030e-1
3.670e-1, -3.026e-1
3.680e-1, -3.022e-1
3.690e-1, -3.018e-1
3.700e-1, -3.013e-1
3.710e-1, -3.009e-1
3.720e-1, -3.005e-1
3.730e-1, -3.001e-1
3.740e-1, -2.997e-1
3.750e-1, -2.993e-1
3.760e-1, -2.988e-1
3.770e-1, -2.984e-1
3.780e-1, -2.980e-1
3.790e-1, -2.976e-1
3.800e-1, -2.972e-1
3.810e-1, -2.968e-1
3.820e-1, -2.963e-1
3.830e-1, -2.959e-1
3.840e-1, -2.955e-1
3.850e-1, -2.951e-1
3.860e-1, -2.947e-1
3.870e-1, -2.943e-1
3.880e-1, -2.939e-1
3.890e-1, -2.935e-1
3.900e-1, -2.931e-1
3.910e-1, -2.927e-1
3.920e-1, -2.923e-1
3.930e-1, -2.919e-1
3.940e-1, -2.915e-1
3.950e-1, -2.911e-1
3.960e-1, -2.907e-1
3.970e-1, -2.903e-1
3.980e-1, -2.899e-1
3.990e-1, -2.895e-1
4.000e-1, -2.891e-1
4.010e-1, -2.887e-1
4.020e-1, -2.883e-1
4.030e-1, -2.879e-1
4.040e-1, -2.875e-1
4.050e-1, -2.871e-1
4.060e-1, -2.867e-1
4.070e-1, -2.863e-1
4.080e-1, -2.859e-1
4.090e-1, -2.855e-1
4.100e-1, -2.852e-1
4.110e-1, -2.848e-1
4.120e-1, -2.843e-1
4.130e-1, -2.840e-1
4.140e-1, -2.836e-1
4.150e-1, -2.832e-1
4.160e-1, -2.828e-1
4.170e-1, -2.824e-1
4.180e-1, -2.820e-1
4.190e-1, -2.816e-1
4.200e-1, -2.813e-1
4.210e-1, -2.809e-1
4.220e-1, -2.805e-1
4.230e-1, -2.801e-1
4.240e-1, -2.798e-1
4.250e-1, -2.794e-1
4.260e-1, -2.790e-1
4.270e-1, -2.786e-1
4.280e-1, -2.782e-1
4.290e-1, -2.778e-1
4.300e-1, -2.775e-1
4.310e-1, -2.771e-1
4.320e-1, -2.767e-1
4.330e-1, -2.763e-1
4.340e-1, -2.760e-1
4.350e-1, -2.756e-1
4.360e-1, -2.752e-1
4.370e-1, -2.748e-1
4.380e-1, -2.744e-1
4.390e-1, -2.741e-1
4.400e-1, -2.737e-1
4.410e-1, -2.733e-1
4.420e-1, -2.730e-1
4.430e-1, -2.726e-1
4.440e-1, -2.722e-1
4.450e-1, -2.718e-1
4.460e-1, -2.715e-1
4.470e-1, -2.711e-1
4.480e-1, -2.707e-1
4.490e-1, -2.703e-1
4.500e-1, -2.699e-1
4.510e-1, -2.696e-1
4.520e-1, -2.692e-1
4.530e-1, -2.688e-1
4.540e-1, -2.685e-1
4.550e-1, -2.681e-1
4.560e-1, -2.678e-1
4.570e-1, -2.674e-1
4.580e-1, -2.670e-1
4.590e-1, -2.666e-1
4.600e-1, -2.663e-1
4.610e-1, -2.659e-1
4.620e-1, -2.655e-1
4.630e-1, -2.652e-1
4.640e-1, -2.648e-1
4.650e-1, -2.644e-1
4.660e-1, -2.641e-1
4.670e-1, -2.637e-1
4.680e-1, -2.634e-1
4.690e-1, -2.630e-1
4.700e-1, -2.626e-1
4.710e-1, -2.623e-1
4.720e-1, -2.619e-1
4.730e-1, -2.616e-1
4.740e-1, -2.612e-1
4.750e-1, -2.609e-1
4.760e-1, -2.605e-1
4.770e-1, -2.601e-1
4.780e-1, -2.598e-1
4.790e-1, -2.594e-1
4.800e-1, -2.590e-1
4.810e-1, -2.587e-1
4.820e-1, -2.583e-1
4.830e-1, -2.579e-1
4.840e-1, -2.576e-1
4.850e-1, -2.573e-1
4.860e-1, -2.569e-1
4.870e-1, -2.565e-1
4.880e-1, -2.562e-1
4.890e-1, -2.558e-1
4.900e-1, -2.555e-1
4.910e-1, -2.551e-1
4.920e-1, -2.548e-1
4.930e-1, -2.544e-1
4.940e-1, -2.540e-1
4.950e-1, -2.537e-1
4.960e-1, -2.534e-1
4.970e-1, -2.530e-1
4.980e-1, -2.526e-1
4.990e-1, -2.523e-1
5.000e-1, -2.519e-1
5.010e-1, -2.516e-1
5.020e-1, -2.513e-1
5.030e-1, -2.509e-1
5.040e-1, -2.505e-1
5.050e-1, -2.502e-1
5.060e-1, -2.498e-1
5.070e-1, -2.495e-1
5.080e-1, -2.491e-1
5.090e-1, -2.488e-1
5.100e-1, -2.484e-1
5.110e-1, -2.481e-1
5.120e-1, -2.477e-1
5.130e-1, -2.474e-1
5.140e-1, -2.471e-1
5.150e-1, -2.467e-1
5.160e-1, -2.463e-1
5.170e-1, -2.460e-1
5.180e-1, -2.456e-1
5.190e-1, -2.453e-1
5.200e-1, -2.450e-1
5.210e-1, -2.446e-1
5.220e-1, -2.443e-1
5.230e-1, -2.439e-1
5.240e-1, -2.436e-1
5.250e-1, -2.432e-1
5.260e-1, -2.429e-1
5.270e-1, -2.425e-1
5.280e-1, -2.422e-1
5.290e-1, -2.419e-1
5.300e-1, -2.415e-1
5.310e-1, -2.412e-1
5.320e-1, -2.408e-1
5.330e-1, -2.405e-1
5.340e-1, -2.402e-1
5.350e-1, -2.398e-1
5.360e-1, -2.395e-1
5.370e-1, -2.391e-1
5.380e-1, -2.388e-1
5.390e-1, -2.385e-1
5.400e-1, -2.381e-1
5.410e-1, -2.378e-1
5.420e-1, -2.374e-1
5.430e-1, -2.371e-1
5.440e-1, -2.368e-1
5.450e-1, -2.365e-1
5.460e-1, -2.361e-1
5.470e-1, -2.358e-1
5.480e-1, -2.354e-1
5.490e-1, -2.351e-1
5.500e-1, -2.348e-1
5.510e-1, -2.344e-1
5.520e-1, -2.341e-1
5.530e-1, -2.338e-1
5.540e-1, -2.334e-1
5.550e-1, -2.331e-1
5.560e-1, -2.327e-1
5.570e-1, -2.324e-1
5.580e-1, -2.321e-1
5.590e-1, -2.317e-1
5.600e-1, -2.314e-1
5.610e-1, -2.310e-1
5.620e-1, -2.307e-1
5.630e-1, -2.304e-1
5.640e-1, -2.300e-1
5.650e-1, -2.297e-1
5.660e-1, -2.294e-1
5.670e-1, -2.290e-1
5.680e-1, -2.287e-1
5.690e-1, -2.284e-1
5.700e-1, -2.280e-1
5.710e-1, -2.277e-1
5.720e-1, -2.274e-1
5.730e-1, -2.270e-1
5.740e-1, -2.267e-1
5.750e-1, -2.263e-1
5.760e-1, -2.260e-1
5.770e-1, -2.257e-1
5.780e-1, -2.254e-1
5.790e-1, -2.251e-1
5.800e-1, -2.247e-1
5.810e-1, -2.244e-1
5.820e-1, -2.241e-1
5.830e-1, -2.237e-1
5.840e-1, -2.234e-1
5.850e-1, -2.231e-1
5.860e-1, -2.227e-1
5.870e-1, -2.224e-1
5.880e-1, -2.221e-1
5.890e-1, -2.217e-1
5.900e-1, -2.214e-1
5.910e-1, -2.211e-1
5.920e-1, -2.208e-1
5.930e-1, -2.204e-1
5.940e-1, -2.201e-1
5.950e-1, -2.197e-1
5.960e-1, -2.194e-1
5.970e-1, -2.191e-1
5.980e-1, -2.187e-1
5.990e-1, -2.184e-1
6.000e-1, -2.181e-1
6.010e-1, -2.178e-1
6.020e-1, -2.174e-1
6.030e-1, -2.171e-1
6.040e-1, -2.168e-1
6.050e-1, -2.164e-1
6.060e-1, -2.161e-1
6.070e-1, -2.158e-1
6.080e-1, -2.155e-1
6.090e-1, -2.152e-1
6.100e-1, -2.148e-1
6.110e-1, -2.145e-1
6.120e-1, -2.142e-1
6.130e-1, -2.139e-1
6.140e-1, -2.135e-1
6.150e-1, -2.132e-1
6.160e-1, -2.129e-1
6.170e-1, -2.126e-1
6.180e-1, -2.123e-1
6.190e-1, -2.119e-1
6.200e-1, -2.116e-1
6.210e-1, -2.112e-1
6.220e-1, -2.109e-1
6.230e-1, -2.106e-1
6.240e-1, -2.103e-1
6.250e-1, -2.100e-1
6.260e-1, -2.096e-1
6.270e-1, -2.093e-1
6.280e-1, -2.090e-1
6.290e-1, -2.086e-1
6.300e-1, -2.083e-1
6.310e-1, -2.080e-1
6.320e-1, -2.077e-1
6.330e-1, -2.073e-1
6.340e-1, -2.070e-1
6.350e-1, -2.067e-1
6.360e-1, -2.064e-1
6.370e-1, -2.061e-1
6.380e-1, -2.057e-1
6.390e-1, -2.054e-1
6.400e-1, -2.051e-1
6.410e-1, -2.048e-1
6.420e-1, -2.045e-1
6.430e-1, -2.041e-1
6.440e-1, -2.038e-1
6.450e-1, -2.035e-1
6.460e-1, -2.032e-1
6.470e-1, -2.028e-1
6.480e-1, -2.025e-1
6.490e-1, -2.022e-1
6.500e-1, -2.019e-1
6.510e-1, -2.016e-1
6.520e-1, -2.013e-1
6.530e-1, -2.009e-1
6.540e-1, -2.007e-1
6.550e-1, -2.003e-1
6.560e-1, -2.000e-1
6.570e-1, -1.996e-1
6.580e-1, -1.993e-1
6.590e-1, -1.990e-1
6.600e-1, -1.987e-1
6.610e-1, -1.984e-1
6.620e-1, -1.980e-1
6.630e-1, -1.977e-1
6.640e-1, -1.974e-1
6.650e-1, -1.971e-1
6.660e-1, -1.968e-1
6.670e-1, -1.964e-1
6.680e-1, -1.961e-1
6.690e-1, -1.958e-1
6.700e-1, -1.955e-1
6.710e-1, -1.952e-1
6.720e-1, -1.949e-1
6.730e-1, -1.946e-1
6.740e-1, -1.942e-1
6.750e-1, -1.939e-1
6.760e-1, -1.936e-1
6.770e-1, -1.933e-1
6.780e-1, -1.930e-1
6.790e-1, -1.926e-1
6.800e-1, -1.923e-1
6.810e-1, -1.920e-1
6.820e-1, -1.917e-1
6.830e-1, -1.914e-1
6.840e-1, -1.910e-1
6.850e-1, -1.907e-1
6.860e-1, -1.904e-1
6.870e-1, -1.901e-1
6.880e-1, -1.898e-1
6.890e-1, -1.894e-1
6.900e-1, -1.891e-1
6.910e-1, -1.888e-1
6.920e-1, -1.885e-1
6.930e-1, -1.882e-1
6.940e-1, -1.878e-1
6.950e-1, -1.876e-1
6.960e-1, -1.872e-1
6.970e-1, -1.869e-1
6.980e-1, -1.866e-1
6.990e-1, -1.863e-1
7.000e-1, -1.860e-1
7.010e-1, -1.856e-1
7.020e-1, -1.853e-1
7.030e-1, -1.850e-1
7.040e-1, -1.847e-1
7.050e-1, -1.844e-1
7.060e-1, -1.841e-1
7.070e-1, -1.838e-1
7.080e-1, -1.834e-1
7.090e-1, -1.831e-1
7.100e-1, -1.828e-1
7.110e-1, -1.825e-1
7.120e-1, -1.822e-1
7.130e-1, -1.818e-1
7.140e-1, -1.815e-1
7.150e-1, -1.812e-1
7.160e-1, -1.809e-1
7.170e-1, -1.806e-1
7.180e-1, -1.803e-1
7.190e-1, -1.800e-1
7.200e-1, -1.796e-1
7.210e-1, -1.793e-1
7.220e-1, -1.790e-1
7.230e-1, -1.787e-1
7.240e-1, -1.784e-1
7.250e-1, -1.780e-1
7.260e-1, -1.777e-1
7.270e-1, -1.774e-1
7.280e-1, -1.771e-1
7.290e-1, -1.768e-1
7.300e-1, -1.765e-1
7.310e-1, -1.762e-1
7.320e-1, -1.759e-1
7.330e-1, -1.756e-1
7.340e-1, -1.752e-1
7.350e-1, -1.749e-1
7.360e-1, -1.746e-1
7.370e-1, -1.743e-1
7.380e-1, -1.740e-1
7.390e-1, -1.736e-1
7.400e-1, -1.733e-1
7.410e-1, -1.731e-1
7.420e-1, -1.727e-1
7.430e-1, -1.724e-1
7.440e-1, -1.721e-1
7.450e-1, -1.718e-1
7.460e-1, -1.715e-1
7.470e-1, -1.712e-1
7.480e-1, -1.708e-1
7.490e-1, -1.705e-1
7.500e-1, -1.702e-1
7.510e-1, -1.699e-1
7.520e-1, -1.696e-1
7.530e-1, -1.693e-1
7.540e-1, -1.690e-1
7.550e-1, -1.686e-1
7.560e-1, -1.683e-1
7.570e-1, -1.680e-1
7.580e-1, -1.677e-1
7.590e-1, -1.674e-1
7.600e-1, -1.671e-1
7.610e-1, -1.668e-1
7.620e-1, -1.665e-1
7.630e-1, -1.661e-1
7.640e-1, -1.658e-1
7.650e-1, -1.656e-1
7.660e-1, -1.652e-1
7.670e-1, -1.649e-1
7.680e-1, -1.646e-1
7.690e-1, -1.643e-1
7.700e-1, -1.640e-1
7.710e-1, -1.636e-1
7.720e-1, -1.633e-1
7.730e-1, -1.630e-1
7.740e-1, -1.627e-1
7.750e-1, -1.625e-1
7.760e-1, -1.621e-1
7.770e-1, -1.618e-1
7.780e-1, -1.615e-1
7.790e-1, -1.612e-1
7.800e-1, -1.609e-1
7.810e-1, -1.606e-1
7.820e-1, -1.603e-1
7.830e-1, -1.599e-1
7.840e-1, -1.596e-1
7.850e-1, -1.593e-1
7.860e-1, -1.590e-1
7.870e-1, -1.587e-1
7.880e-1, -1.584e-1
7.890e-1, -1.581e-1
7.900e-1, -1.577e-1
7.910e-1, -1.574e-1
7.920e-1, -1.571e-1
7.930e-1, -1.568e-1
7.940e-1, -1.566e-1
7.950e-1, -1.562e-1
7.960e-1, -1.559e-1
7.970e-1, -1.556e-1
7.980e-1, -1.553e-1
7.990e-1, -1.550e-1
8.000e-1, -1.547e-1
8.010e-1, -1.544e-1
8.020e-1, -1.540e-1
8.030e-1, -1.537e-1
8.040e-1, -1.534e-1
8.050e-1, -1.531e-1
8.060e-1, -1.528e-1
8.070e-1, -1.525e-1
8.080e-1, -1.521e-1
8.090e-1, -1.518e-1
8.100e-1, -1.515e-1
8.110e-1, -1.512e-1
8.120e-1, -1.509e-1
8.130e-1, -1.506e-1
8.140e-1, -1.503e-1
8.150e-1, -1.500e-1
8.160e-1, -1.497e-1
8.170e-1, -1.493e-1
8.180e-1, -1.490e-1
8.190e-1, -1.487e-1
8.200e-1, -1.484e-1
8.210e-1, -1.481e-1
8.220e-1, -1.478e-1
8.230e-1, -1.475e-1
8.240e-1, -1.472e-1
8.250e-1, -1.469e-1
8.260e-1, -1.466e-1
8.270e-1, -1.463e-1
8.280e-1, -1.460e-1
8.290e-1, -1.456e-1
8.300e-1, -1.454e-1
8.310e-1, -1.450e-1
8.320e-1, -1.447e-1
8.330e-1, -1.444e-1
8.340e-1, -1.441e-1
8.350e-1, -1.438e-1
8.360e-1, -1.434e-1
8.370e-1, -1.431e-1
8.380e-1, -1.429e-1
8.390e-1, -1.425e-1
8.400e-1, -1.422e-1
8.410e-1, -1.419e-1
8.420e-1, -1.416e-1
8.430e-1, -1.413e-1
8.440e-1, -1.410e-1
8.450e-1, -1.407e-1
8.460e-1, -1.403e-1
8.470e-1, -1.400e-1
8.480e-1, -1.397e-1
8.490e-1, -1.394e-1
8.500e-1, -1.391e-1
8.510e-1, -1.388e-1
8.520e-1, -1.385e-1
8.530e-1, -1.382e-1
8.540e-1, -1.379e-1
8.550e-1, -1.376e-1
8.560e-1, -1.373e-1
8.570e-1, -1.370e-1
8.580e-1, -1.366e-1
8.590e-1, -1.364e-1
8.600e-1, -1.360e-1
8.610e-1, -1.357e-1
8.620e-1, -1.354e-1
8.630e-1, -1.351e-1
8.640e-1, -1.348e-1
8.650e-1, -1.345e-1
8.660e-1, -1.342e-1
8.670e-1, -1.339e-1
8.680e-1, -1.335e-1
8.690e-1, -1.333e-1
8.700e-1, -1.329e-1
8.710e-1, -1.326e-1
8.720e-1, -1.323e-1
8.730e-1, -1.320e-1
8.740e-1, -1.317e-1
8.750e-1, -1.313e-1
8.760e-1, -1.311e-1
8.770e-1, -1.308e-1
8.780e-1, -1.304e-1
8.790e-1, -1.301e-1
8.800e-1, -1.298e-1
8.810e-1, -1.295e-1
8.820e-1, -1.292e-1
8.830e-1, -1.289e-1
8.840e-1, -1.286e-1
8.850e-1, -1.283e-1
8.860e-1, -1.280e-1
8.870e-1, -1.277e-1
8.880e-1, -1.274e-1
8.890e-1, -1.271e-1
8.900e-1, -1.267e-1
8.910e-1, -1.264e-1
8.920e-1, -1.261e-1
8.930e-1, -1.258e-1
8.940e-1, -1.255e-1
8.950e-1, -1.252e-1
8.960e-1, -1.249e-1
8.970e-1, -1.246e-1
8.980e-1, -1.243e-1
8.990e-1, -1.239e-1
9.000e-1, -1.237e-1
9.010e-1, -1.234e-1
9.020e-1, -1.231e-1
9.030e-1, -1.228e-1
9.040e-1, -1.224e-1
9.050e-1, -1.221e-1
9.060e-1, -1.218e-1
9.070e-1, -1.215e-1
9.080e-1, -1.212e-1
9.090e-1, -1.209e-1
9.100e-1, -1.206e-1
9.110e-1, -1.203e-1
9.120e-1, -1.200e-1
9.130e-1, -1.197e-1
9.140e-1, -1.193e-1
9.150e-1, -1.191e-1
9.160e-1, -1.187e-1
9.170e-1, -1.185e-1
9.180e-1, -1.181e-1
9.190e-1, -1.178e-1
9.200e-1, -1.175e-1
9.210e-1, -1.172e-1
9.220e-1, -1.169e-1
9.230e-1, -1.166e-1
9.240e-1, -1.163e-1
9.250e-1, -1.160e-1
9.260e-1, -1.156e-1
9.270e-1, -1.154e-1
9.280e-1, -1.150e-1
9.290e-1, -1.147e-1
9.300e-1, -1.144e-1
9.310e-1, -1.141e-1
9.320e-1, -1.138e-1
9.330e-1, -1.135e-1
9.340e-1, -1.132e-1
9.350e-1, -1.128e-1
9.360e-1, -1.126e-1
9.370e-1, -1.122e-1
9.380e-1, -1.119e-1
9.390e-1, -1.117e-1
9.400e-1, -1.113e-1
9.410e-1, -1.110e-1
9.420e-1, -1.107e-1
9.430e-1, -1.104e-1
9.440e-1, -1.101e-1
9.450e-1, -1.098e-1
9.460e-1, -1.095e-1
9.470e-1, -1.092e-1
9.480e-1, -1.088e-1
9.490e-1, -1.085e-1
9.500e-1, -1.082e-1
9.510e-1, -1.080e-1
9.520e-1, -1.076e-1
9.530e-1, -1.073e-1
9.540e-1, -1.070e-1
9.550e-1, -1.067e-1
9.560e-1, -1.064e-1
9.570e-1, -1.061e-1
9.580e-1, -1.058e-1
9.590e-1, -1.055e-1
9.600e-1, -1.052e-1
9.610e-1, -1.048e-1
9.620e-1, -1.045e-1
9.630e-1, -1.043e-1
9.640e-1, -1.039e-1
9.650e-1, -1.036e-1
9.660e-1, -1.033e-1
9.670e-1, -1.030e-1
9.680e-1, -1.027e-1
9.690e-1, -1.024e-1
9.700e-1, -1.021e-1
9.710e-1, -1.017e-1
9.720e-1, -1.014e-1
9.730e-1, -1.012e-1
9.740e-1, -1.008e-1
9.750e-1, -1.005e-1
9.760e-1, -1.002e-1
9.770e-1, -9.986e-2
9.780e-1, -9.956e-2
9.790e-1, -9.925e-2
