Apr. 13, 2018   16:56:09
Chronopotentiometry
File: c:\users\lingd\google drive\Data Source:  Experiment
Instrument Model:  CHI660E
Header: 
Note: 

Cathodic Current (A) = 0.0444
Anodic Current (A) = 0.0444
Init P/N = N
Data Storage Interval (s) = 0.001
High E Limit (V) = 0
Low E Limit (V) = -1
Cathodic Time (s) = 10
Anodic Time (s) = 10
Current Switching Polarity = Potential
Segment = 5

Time/sec, Potential/V

1.000e-3, -8.455e-1
2.000e-3, -8.602e-1
3.000e-3, -8.673e-1
4.000e-3, -8.724e-1
5.000e-3, -8.767e-1
6.000e-3, -8.814e-1
7.000e-3, -8.864e-1
8.000e-3, -8.914e-1
9.000e-3, -8.962e-1
1.000e-2, -9.008e-1
1.100e-2, -9.052e-1
1.200e-2, -9.093e-1
1.300e-2, -9.132e-1
1.400e-2, -9.169e-1
1.500e-2, -9.205e-1
1.600e-2, -9.239e-1
1.700e-2, -9.272e-1
1.800e-2, -9.303e-1
1.900e-2, -9.333e-1
2.000e-2, -9.361e-1
2.100e-2, -9.389e-1
2.200e-2, -9.415e-1
2.300e-2, -9.441e-1
2.400e-2, -9.465e-1
2.500e-2, -9.489e-1
2.600e-2, -9.512e-1
2.700e-2, -9.535e-1
2.800e-2, -9.556e-1
2.900e-2, -9.577e-1
3.000e-2, -9.598e-1
3.100e-2, -9.617e-1
3.200e-2, -9.637e-1
3.300e-2, -9.655e-1
3.400e-2, -9.673e-1
3.500e-2, -9.691e-1
3.600e-2, -9.708e-1
3.700e-2, -9.725e-1
3.800e-2, -9.741e-1
3.900e-2, -9.757e-1
4.000e-2, -9.773e-1
4.100e-2, -9.788e-1
4.200e-2, -9.803e-1
4.300e-2, -9.817e-1
4.400e-2, -9.832e-1
4.500e-2, -9.846e-1
4.600e-2, -9.859e-1
4.700e-2, -9.872e-1
4.800e-2, -9.885e-1
4.900e-2, -9.898e-1
5.000e-2, -9.910e-1
5.100e-2, -9.923e-1
5.200e-2, -9.934e-1
5.300e-2, -9.946e-1
5.400e-2, -9.958e-1
5.500e-2, -9.969e-1
5.600e-2, -9.981e-1
5.700e-2, -9.992e-1
5.800e-2, -8.298e-1
5.900e-2, -8.025e-1
6.000e-2, -7.818e-1
6.100e-2, -7.646e-1
6.200e-2, -7.501e-1
6.300e-2, -7.378e-1
6.400e-2, -7.265e-1
6.500e-2, -7.153e-1
6.600e-2, -7.054e-1
6.700e-2, -6.964e-1
6.800e-2, -6.880e-1
6.900e-2, -6.799e-1
7.000e-2, -6.719e-1
7.100e-2, -6.644e-1
7.200e-2, -6.573e-1
7.300e-2, -6.506e-1
7.400e-2, -6.443e-1
7.500e-2, -6.381e-1
7.600e-2, -6.325e-1
7.700e-2, -6.270e-1
7.800e-2, -6.218e-1
7.900e-2, -6.167e-1
8.000e-2, -6.118e-1
8.100e-2, -6.071e-1
8.200e-2, -6.024e-1
8.300e-2, -5.979e-1
8.400e-2, -5.936e-1
8.500e-2, -5.894e-1
8.600e-2, -5.853e-1
8.700e-2, -5.813e-1
8.800e-2, -5.775e-1
8.900e-2, -5.738e-1
9.000e-2, -5.702e-1
9.100e-2, -5.667e-1
9.200e-2, -5.632e-1
9.300e-2, -5.598e-1
9.400e-2, -5.566e-1
9.500e-2, -5.535e-1
9.600e-2, -5.504e-1
9.700e-2, -5.474e-1
9.800e-2, -5.445e-1
9.900e-2, -5.415e-1
1.000e-1, -5.388e-1
1.010e-1, -5.360e-1
1.020e-1, -5.333e-1
1.030e-1, -5.307e-1
1.040e-1, -5.281e-1
1.050e-1, -5.256e-1
1.060e-1, -5.231e-1
1.070e-1, -5.207e-1
1.080e-1, -5.183e-1
1.090e-1, -5.160e-1
1.100e-1, -5.137e-1
1.110e-1, -5.115e-1
1.120e-1, -5.093e-1
1.130e-1, -5.071e-1
1.140e-1, -5.050e-1
1.150e-1, -5.028e-1
1.160e-1, -5.008e-1
1.170e-1, -4.987e-1
1.180e-1, -4.967e-1
1.190e-1, -4.948e-1
1.200e-1, -4.928e-1
1.210e-1, -4.910e-1
1.220e-1, -4.891e-1
1.230e-1, -4.872e-1
1.240e-1, -4.854e-1
1.250e-1, -4.836e-1
1.260e-1, -4.818e-1
1.270e-1, -4.801e-1
1.280e-1, -4.784e-1
1.290e-1, -4.767e-1
1.300e-1, -4.751e-1
1.310e-1, -4.734e-1
1.320e-1, -4.717e-1
1.330e-1, -4.702e-1
1.340e-1, -4.686e-1
1.350e-1, -4.670e-1
1.360e-1, -4.654e-1
1.370e-1, -4.639e-1
1.380e-1, -4.624e-1
1.390e-1, -4.609e-1
1.400e-1, -4.595e-1
1.410e-1, -4.580e-1
1.420e-1, -4.566e-1
1.430e-1, -4.551e-1
1.440e-1, -4.537e-1
1.450e-1, -4.523e-1
1.460e-1, -4.509e-1
1.470e-1, -4.496e-1
1.480e-1, -4.483e-1
1.490e-1, -4.469e-1
1.500e-1, -4.456e-1
1.510e-1, -4.443e-1
1.520e-1, -4.430e-1
1.530e-1, -4.417e-1
1.540e-1, -4.405e-1
1.550e-1, -4.392e-1
1.560e-1, -4.380e-1
1.570e-1, -4.367e-1
1.580e-1, -4.355e-1
1.590e-1, -4.344e-1
1.600e-1, -4.331e-1
1.610e-1, -4.320e-1
1.620e-1, -4.308e-1
1.630e-1, -4.297e-1
1.640e-1, -4.285e-1
1.650e-1, -4.274e-1
1.660e-1, -4.263e-1
1.670e-1, -4.251e-1
1.680e-1, -4.240e-1
1.690e-1, -4.229e-1
1.700e-1, -4.218e-1
1.710e-1, -4.208e-1
1.720e-1, -4.197e-1
1.730e-1, -4.187e-1
1.740e-1, -4.176e-1
1.750e-1, -4.165e-1
1.760e-1, -4.155e-1
1.770e-1, -4.145e-1
1.780e-1, -4.135e-1
1.790e-1, -4.125e-1
1.800e-1, -4.115e-1
1.810e-1, -4.105e-1
1.820e-1, -4.095e-1
1.830e-1, -4.085e-1
1.840e-1, -4.076e-1
1.850e-1, -4.066e-1
1.860e-1, -4.056e-1
1.870e-1, -4.047e-1
1.880e-1, -4.037e-1
1.890e-1, -4.028e-1
1.900e-1, -4.019e-1
1.910e-1, -4.009e-1
1.920e-1, -4.001e-1
1.930e-1, -3.991e-1
1.940e-1, -3.982e-1
1.950e-1, -3.974e-1
1.960e-1, -3.965e-1
1.970e-1, -3.956e-1
1.980e-1, -3.947e-1
1.990e-1, -3.939e-1
2.000e-1, -3.930e-1
2.010e-1, -3.921e-1
2.020e-1, -3.913e-1
2.030e-1, -3.904e-1
2.040e-1, -3.896e-1
2.050e-1, -3.887e-1
2.060e-1, -3.879e-1
2.070e-1, -3.871e-1
2.080e-1, -3.862e-1
2.090e-1, -3.854e-1
2.100e-1, -3.846e-1
2.110e-1, -3.838e-1
2.120e-1, -3.830e-1
2.130e-1, -3.822e-1
2.140e-1, -3.814e-1
2.150e-1, -3.806e-1
2.160e-1, -3.798e-1
2.170e-1, -3.791e-1
2.180e-1, -3.783e-1
2.190e-1, -3.775e-1
2.200e-1, -3.767e-1
2.210e-1, -3.760e-1
2.220e-1, -3.752e-1
2.230e-1, -3.745e-1
2.240e-1, -3.737e-1
2.250e-1, -3.730e-1
2.260e-1, -3.722e-1
2.270e-1, -3.715e-1
2.280e-1, -3.707e-1
2.290e-1, -3.700e-1
2.300e-1, -3.693e-1
2.310e-1, -3.685e-1
2.320e-1, -3.678e-1
2.330e-1, -3.671e-1
2.340e-1, -3.664e-1
2.350e-1, -3.656e-1
2.360e-1, -3.649e-1
2.370e-1, -3.642e-1
2.380e-1, -3.636e-1
2.390e-1, -3.629e-1
2.400e-1, -3.621e-1
2.410e-1, -3.615e-1
2.420e-1, -3.608e-1
2.430e-1, -3.601e-1
2.440e-1, -3.594e-1
2.450e-1, -3.587e-1
2.460e-1, -3.581e-1
2.470e-1, -3.574e-1
2.480e-1, -3.567e-1
2.490e-1, -3.560e-1
2.500e-1, -3.553e-1
2.510e-1, -3.547e-1
2.520e-1, -3.540e-1
2.530e-1, -3.534e-1
2.540e-1, -3.527e-1
2.550e-1, -3.520e-1
2.560e-1, -3.514e-1
2.570e-1, -3.507e-1
2.580e-1, -3.501e-1
2.590e-1, -3.494e-1
2.600e-1, -3.487e-1
2.610e-1, -3.481e-1
2.620e-1, -3.475e-1
2.630e-1, -3.469e-1
2.640e-1, -3.462e-1
2.650e-1, -3.455e-1
2.660e-1, -3.449e-1
2.670e-1, -3.443e-1
2.680e-1, -3.437e-1
2.690e-1, -3.431e-1
2.700e-1, -3.425e-1
2.710e-1, -3.418e-1
2.720e-1, -3.412e-1
2.730e-1, -3.406e-1
2.740e-1, -3.400e-1
2.750e-1, -3.395e-1
2.760e-1, -3.388e-1
2.770e-1, -3.383e-1
2.780e-1, -3.377e-1
2.790e-1, -3.371e-1
2.800e-1, -3.366e-1
2.810e-1, -3.360e-1
2.820e-1, -3.354e-1
2.830e-1, -3.348e-1
2.840e-1, -3.343e-1
2.850e-1, -3.337e-1
2.860e-1, -3.332e-1
2.870e-1, -3.326e-1
2.880e-1, -3.320e-1
2.890e-1, -3.315e-1
2.900e-1, -3.310e-1
2.910e-1, -3.305e-1
2.920e-1, -3.300e-1
2.930e-1, -3.295e-1
2.940e-1, -3.289e-1
2.950e-1, -3.285e-1
2.960e-1, -3.280e-1
2.970e-1, -3.275e-1
2.980e-1, -3.270e-1
2.990e-1, -3.265e-1
3.000e-1, -3.260e-1
3.010e-1, -3.255e-1
3.020e-1, -3.250e-1
3.030e-1, -3.245e-1
3.040e-1, -3.240e-1
3.050e-1, -3.235e-1
3.060e-1, -3.230e-1
3.070e-1, -3.225e-1
3.080e-1, -3.220e-1
3.090e-1, -3.215e-1
3.100e-1, -3.210e-1
3.110e-1, -3.205e-1
3.120e-1, -3.200e-1
3.130e-1, -3.194e-1
3.140e-1, -3.190e-1
3.150e-1, -3.185e-1
3.160e-1, -3.180e-1
3.170e-1, -3.174e-1
3.180e-1, -3.170e-1
3.190e-1, -3.165e-1
3.200e-1, -3.159e-1
3.210e-1, -3.154e-1
3.220e-1, -3.150e-1
3.230e-1, -3.144e-1
3.240e-1, -3.140e-1
3.250e-1, -3.134e-1
3.260e-1, -3.130e-1
3.270e-1, -3.125e-1
3.280e-1, -3.120e-1
3.290e-1, -3.115e-1
3.300e-1, -3.109e-1
3.310e-1, -3.105e-1
3.320e-1, -3.100e-1
3.330e-1, -3.094e-1
3.340e-1, -3.090e-1
3.350e-1, -3.084e-1
3.360e-1, -3.079e-1
3.370e-1, -3.074e-1
3.380e-1, -3.069e-1
3.390e-1, -3.063e-1
3.400e-1, -3.058e-1
3.410e-1, -3.052e-1
3.420e-1, -3.047e-1
3.430e-1, -3.041e-1
3.440e-1, -3.035e-1
3.450e-1, -3.030e-1
3.460e-1, -3.025e-1
3.470e-1, -3.019e-1
3.480e-1, -3.014e-1
3.490e-1, -3.008e-1
3.500e-1, -3.003e-1
3.510e-1, -2.998e-1
3.520e-1, -2.994e-1
3.530e-1, -2.989e-1
3.540e-1, -2.985e-1
3.550e-1, -2.981e-1
3.560e-1, -2.976e-1
3.570e-1, -2.972e-1
3.580e-1, -2.967e-1
3.590e-1, -2.963e-1
3.600e-1, -2.959e-1
3.610e-1, -2.954e-1
3.620e-1, -2.950e-1
3.630e-1, -2.945e-1
3.640e-1, -2.941e-1
3.650e-1, -2.937e-1
3.660e-1, -2.932e-1
3.670e-1, -2.928e-1
3.680e-1, -2.924e-1
3.690e-1, -2.920e-1
3.700e-1, -2.916e-1
3.710e-1, -2.912e-1
3.720e-1, -2.908e-1
3.730e-1, -2.903e-1
3.740e-1, -2.900e-1
3.750e-1, -2.895e-1
3.760e-1, -2.891e-1
3.770e-1, -2.887e-1
3.780e-1, -2.884e-1
3.790e-1, -2.880e-1
3.800e-1, -2.876e-1
3.810e-1, -2.873e-1
3.820e-1, -2.869e-1
3.830e-1, -2.866e-1
3.840e-1, -2.862e-1
3.850e-1, -2.858e-1
3.860e-1, -2.855e-1
3.870e-1, -2.851e-1
3.880e-1, -2.847e-1
3.890e-1, -2.843e-1
3.900e-1, -2.840e-1
3.910e-1, -2.836e-1
3.920e-1, -2.832e-1
3.930e-1, -2.829e-1
3.940e-1, -2.824e-1
3.950e-1, -2.820e-1
3.960e-1, -2.816e-1
3.970e-1, -2.813e-1
3.980e-1, -2.809e-1
3.990e-1, -2.805e-1
4.000e-1, -2.801e-1
4.010e-1, -2.797e-1
4.020e-1, -2.793e-1
4.030e-1, -2.789e-1
4.040e-1, -2.785e-1
4.050e-1, -2.781e-1
4.060e-1, -2.777e-1
4.070e-1, -2.774e-1
4.080e-1, -2.769e-1
4.090e-1, -2.765e-1
4.100e-1, -2.761e-1
4.110e-1, -2.757e-1
4.120e-1, -2.754e-1
4.130e-1, -2.749e-1
4.140e-1, -2.746e-1
4.150e-1, -2.742e-1
4.160e-1, -2.738e-1
4.170e-1, -2.734e-1
4.180e-1, -2.730e-1
4.190e-1, -2.726e-1
4.200e-1, -2.722e-1
4.210e-1, -2.718e-1
4.220e-1, -2.714e-1
4.230e-1, -2.710e-1
4.240e-1, -2.707e-1
4.250e-1, -2.702e-1
4.260e-1, -2.699e-1
4.270e-1, -2.695e-1
4.280e-1, -2.691e-1
4.290e-1, -2.687e-1
4.300e-1, -2.683e-1
4.310e-1, -2.679e-1
4.320e-1, -2.675e-1
4.330e-1, -2.672e-1
4.340e-1, -2.667e-1
4.350e-1, -2.664e-1
4.360e-1, -2.660e-1
4.370e-1, -2.656e-1
4.380e-1, -2.653e-1
4.390e-1, -2.648e-1
4.400e-1, -2.645e-1
4.410e-1, -2.641e-1
4.420e-1, -2.637e-1
4.430e-1, -2.633e-1
4.440e-1, -2.630e-1
4.450e-1, -2.626e-1
4.460e-1, -2.622e-1
4.470e-1, -2.618e-1
4.480e-1, -2.614e-1
4.490e-1, -2.611e-1
4.500e-1, -2.607e-1
4.510e-1, -2.603e-1
4.520e-1, -2.599e-1
4.530e-1, -2.595e-1
4.540e-1, -2.591e-1
4.550e-1, -2.588e-1
4.560e-1, -2.584e-1
4.570e-1, -2.580e-1
4.580e-1, -2.576e-1
4.590e-1, -2.573e-1
4.600e-1, -2.569e-1
4.610e-1, -2.565e-1
4.620e-1, -2.562e-1
4.630e-1, -2.558e-1
4.640e-1, -2.554e-1
4.650e-1, -2.551e-1
4.660e-1, -2.547e-1
4.670e-1, -2.543e-1
4.680e-1, -2.539e-1
4.690e-1, -2.536e-1
4.700e-1, -2.532e-1
4.710e-1, -2.529e-1
4.720e-1, -2.525e-1
4.730e-1, -2.521e-1
4.740e-1, -2.518e-1
4.750e-1, -2.514e-1
4.760e-1, -2.510e-1
4.770e-1, -2.506e-1
4.780e-1, -2.503e-1
4.790e-1, -2.499e-1
4.800e-1, -2.496e-1
4.810e-1, -2.492e-1
4.820e-1, -2.488e-1
4.830e-1, -2.484e-1
4.840e-1, -2.481e-1
4.850e-1, -2.477e-1
4.860e-1, -2.474e-1
4.870e-1, -2.470e-1
4.880e-1, -2.467e-1
4.890e-1, -2.463e-1
4.900e-1, -2.460e-1
4.910e-1, -2.456e-1
4.920e-1, -2.452e-1
4.930e-1, -2.449e-1
4.940e-1, -2.445e-1
4.950e-1, -2.441e-1
4.960e-1, -2.438e-1
4.970e-1, -2.434e-1
4.980e-1, -2.431e-1
4.990e-1, -2.427e-1
5.000e-1, -2.423e-1
5.010e-1, -2.420e-1
5.020e-1, -2.417e-1
5.030e-1, -2.413e-1
5.040e-1, -2.410e-1
5.050e-1, -2.406e-1
5.060e-1, -2.403e-1
5.070e-1, -2.400e-1
5.080e-1, -2.396e-1
5.090e-1, -2.393e-1
5.100e-1, -2.389e-1
5.110e-1, -2.385e-1
5.120e-1, -2.382e-1
5.130e-1, -2.378e-1
5.140e-1, -2.375e-1
5.150e-1, -2.371e-1
5.160e-1, -2.368e-1
5.170e-1, -2.364e-1
5.180e-1, -2.361e-1
5.190e-1, -2.357e-1
5.200e-1, -2.354e-1
5.210e-1, -2.351e-1
5.220e-1, -2.347e-1
5.230e-1, -2.344e-1
5.240e-1, -2.340e-1
5.250e-1, -2.336e-1
5.260e-1, -2.334e-1
5.270e-1, -2.330e-1
5.280e-1, -2.326e-1
5.290e-1, -2.323e-1
5.300e-1, -2.319e-1
5.310e-1, -2.316e-1
5.320e-1, -2.312e-1
5.330e-1, -2.309e-1
5.340e-1, -2.305e-1
5.350e-1, -2.302e-1
5.360e-1, -2.299e-1
5.370e-1, -2.295e-1
5.380e-1, -2.292e-1
5.390e-1, -2.288e-1
5.400e-1, -2.285e-1
5.410e-1, -2.281e-1
5.420e-1, -2.278e-1
5.430e-1, -2.274e-1
5.440e-1, -2.271e-1
5.450e-1, -2.268e-1
5.460e-1, -2.264e-1
5.470e-1, -2.261e-1
5.480e-1, -2.258e-1
5.490e-1, -2.254e-1
5.500e-1, -2.251e-1
5.510e-1, -2.248e-1
5.520e-1, -2.244e-1
5.530e-1, -2.241e-1
5.540e-1, -2.238e-1
5.550e-1, -2.234e-1
5.560e-1, -2.231e-1
5.570e-1, -2.227e-1
5.580e-1, -2.224e-1
5.590e-1, -2.221e-1
5.600e-1, -2.217e-1
5.610e-1, -2.214e-1
5.620e-1, -2.210e-1
5.630e-1, -2.207e-1
5.640e-1, -2.204e-1
5.650e-1, -2.200e-1
5.660e-1, -2.197e-1
5.670e-1, -2.194e-1
5.680e-1, -2.191e-1
5.690e-1, -2.187e-1
5.700e-1, -2.183e-1
5.710e-1, -2.180e-1
5.720e-1, -2.177e-1
5.730e-1, -2.174e-1
5.740e-1, -2.170e-1
5.750e-1, -2.167e-1
5.760e-1, -2.163e-1
5.770e-1, -2.160e-1
5.780e-1, -2.157e-1
5.790e-1, -2.154e-1
5.800e-1, -2.151e-1
5.810e-1, -2.147e-1
5.820e-1, -2.144e-1
5.830e-1, -2.141e-1
5.840e-1, -2.137e-1
5.850e-1, -2.134e-1
5.860e-1, -2.131e-1
5.870e-1, -2.128e-1
5.880e-1, -2.124e-1
5.890e-1, -2.121e-1
5.900e-1, -2.117e-1
5.910e-1, -2.114e-1
5.920e-1, -2.111e-1
5.930e-1, -2.107e-1
5.940e-1, -2.104e-1
5.950e-1, -2.101e-1
5.960e-1, -2.098e-1
5.970e-1, -2.094e-1
5.980e-1, -2.091e-1
5.990e-1, -2.088e-1
6.000e-1, -2.084e-1
6.010e-1, -2.081e-1
6.020e-1, -2.078e-1
6.030e-1, -2.075e-1
6.040e-1, -2.072e-1
6.050e-1, -2.068e-1
6.060e-1, -2.065e-1
6.070e-1, -2.062e-1
6.080e-1, -2.059e-1
6.090e-1, -2.055e-1
6.100e-1, -2.052e-1
6.110e-1, -2.049e-1
6.120e-1, -2.046e-1
6.130e-1, -2.043e-1
6.140e-1, -2.039e-1
6.150e-1, -2.036e-1
6.160e-1, -2.033e-1
6.170e-1, -2.029e-1
6.180e-1, -2.026e-1
6.190e-1, -2.023e-1
6.200e-1, -2.020e-1
6.210e-1, -2.017e-1
6.220e-1, -2.013e-1
6.230e-1, -2.010e-1
6.240e-1, -2.007e-1
6.250e-1, -2.004e-1
6.260e-1, -2.000e-1
6.270e-1, -1.997e-1
6.280e-1, -1.994e-1
6.290e-1, -1.991e-1
6.300e-1, -1.988e-1
6.310e-1, -1.985e-1
6.320e-1, -1.982e-1
6.330e-1, -1.978e-1
6.340e-1, -1.975e-1
6.350e-1, -1.972e-1
6.360e-1, -1.968e-1
6.370e-1, -1.966e-1
6.380e-1, -1.962e-1
6.390e-1, -1.959e-1
6.400e-1, -1.956e-1
6.410e-1, -1.953e-1
6.420e-1, -1.949e-1
6.430e-1, -1.946e-1
6.440e-1, -1.943e-1
6.450e-1, -1.940e-1
6.460e-1, -1.937e-1
6.470e-1, -1.934e-1
6.480e-1, -1.931e-1
6.490e-1, -1.928e-1
6.500e-1, -1.924e-1
6.510e-1, -1.921e-1
6.520e-1, -1.918e-1
6.530e-1, -1.915e-1
6.540e-1, -1.911e-1
6.550e-1, -1.908e-1
6.560e-1, -1.905e-1
6.570e-1, -1.902e-1
6.580e-1, -1.899e-1
6.590e-1, -1.896e-1
6.600e-1, -1.892e-1
6.610e-1, -1.889e-1
6.620e-1, -1.886e-1
6.630e-1, -1.883e-1
6.640e-1, -1.880e-1
6.650e-1, -1.877e-1
6.660e-1, -1.873e-1
6.670e-1, -1.870e-1
6.680e-1, -1.868e-1
6.690e-1, -1.864e-1
6.700e-1, -1.862e-1
6.710e-1, -1.858e-1
6.720e-1, -1.855e-1
6.730e-1, -1.852e-1
6.740e-1, -1.848e-1
6.750e-1, -1.846e-1
6.760e-1, -1.843e-1
6.770e-1, -1.839e-1
6.780e-1, -1.836e-1
6.790e-1, -1.833e-1
6.800e-1, -1.830e-1
6.810e-1, -1.827e-1
6.820e-1, -1.824e-1
6.830e-1, -1.821e-1
6.840e-1, -1.818e-1
6.850e-1, -1.814e-1
6.860e-1, -1.811e-1
6.870e-1, -1.809e-1
6.880e-1, -1.805e-1
6.890e-1, -1.802e-1
6.900e-1, -1.799e-1
6.910e-1, -1.796e-1
6.920e-1, -1.793e-1
6.930e-1, -1.789e-1
6.940e-1, -1.786e-1
6.950e-1, -1.783e-1
6.960e-1, -1.780e-1
6.970e-1, -1.777e-1
6.980e-1, -1.774e-1
6.990e-1, -1.771e-1
7.000e-1, -1.768e-1
7.010e-1, -1.765e-1
7.020e-1, -1.762e-1
7.030e-1, -1.759e-1
7.040e-1, -1.755e-1
7.050e-1, -1.752e-1
7.060e-1, -1.750e-1
7.070e-1, -1.746e-1
7.080e-1, -1.743e-1
7.090e-1, -1.740e-1
7.100e-1, -1.737e-1
7.110e-1, -1.734e-1
7.120e-1, -1.731e-1
7.130e-1, -1.728e-1
7.140e-1, -1.724e-1
7.150e-1, -1.722e-1
7.160e-1, -1.719e-1
7.170e-1, -1.715e-1
7.180e-1, -1.712e-1
7.190e-1, -1.709e-1
7.200e-1, -1.706e-1
7.210e-1, -1.703e-1
7.220e-1, -1.700e-1
7.230e-1, -1.697e-1
7.240e-1, -1.694e-1
7.250e-1, -1.690e-1
7.260e-1, -1.688e-1
7.270e-1, -1.685e-1
7.280e-1, -1.682e-1
7.290e-1, -1.679e-1
7.300e-1, -1.676e-1
7.310e-1, -1.673e-1
7.320e-1, -1.669e-1
7.330e-1, -1.666e-1
7.340e-1, -1.664e-1
7.350e-1, -1.660e-1
7.360e-1, -1.657e-1
7.370e-1, -1.654e-1
7.380e-1, -1.651e-1
7.390e-1, -1.648e-1
7.400e-1, -1.645e-1
7.410e-1, -1.642e-1
7.420e-1, -1.639e-1
7.430e-1, -1.636e-1
7.440e-1, -1.633e-1
7.450e-1, -1.630e-1
7.460e-1, -1.627e-1
7.470e-1, -1.624e-1
7.480e-1, -1.621e-1
7.490e-1, -1.618e-1
7.500e-1, -1.615e-1
7.510e-1, -1.612e-1
7.520e-1, -1.609e-1
7.530e-1, -1.606e-1
7.540e-1, -1.603e-1
7.550e-1, -1.600e-1
7.560e-1, -1.597e-1
7.570e-1, -1.594e-1
7.580e-1, -1.591e-1
7.590e-1, -1.588e-1
7.600e-1, -1.585e-1
7.610e-1, -1.582e-1
7.620e-1, -1.579e-1
7.630e-1, -1.576e-1
7.640e-1, -1.573e-1
7.650e-1, -1.570e-1
7.660e-1, -1.567e-1
7.670e-1, -1.564e-1
7.680e-1, -1.561e-1
7.690e-1, -1.558e-1
7.700e-1, -1.555e-1
7.710e-1, -1.552e-1
7.720e-1, -1.549e-1
7.730e-1, -1.546e-1
7.740e-1, -1.543e-1
7.750e-1, -1.540e-1
7.760e-1, -1.537e-1
7.770e-1, -1.534e-1
7.780e-1, -1.531e-1
7.790e-1, -1.527e-1
7.800e-1, -1.525e-1
7.810e-1, -1.522e-1
7.820e-1, -1.518e-1
7.830e-1, -1.515e-1
7.840e-1, -1.512e-1
7.850e-1, -1.509e-1
7.860e-1, -1.507e-1
7.870e-1, -1.504e-1
7.880e-1, -1.501e-1
7.890e-1, -1.498e-1
7.900e-1, -1.495e-1
7.910e-1, -1.492e-1
7.920e-1, -1.488e-1
7.930e-1, -1.486e-1
7.940e-1, -1.483e-1
7.950e-1, -1.479e-1
7.960e-1, -1.477e-1
7.970e-1, -1.474e-1
7.980e-1, -1.471e-1
7.990e-1, -1.468e-1
8.000e-1, -1.465e-1
8.010e-1, -1.462e-1
8.020e-1, -1.459e-1
8.030e-1, -1.456e-1
8.040e-1, -1.453e-1
8.050e-1, -1.450e-1
8.060e-1, -1.447e-1
8.070e-1, -1.444e-1
8.080e-1, -1.441e-1
8.090e-1, -1.438e-1
8.100e-1, -1.435e-1
8.110e-1, -1.432e-1
8.120e-1, -1.429e-1
8.130e-1, -1.426e-1
8.140e-1, -1.423e-1
8.150e-1, -1.420e-1
8.160e-1, -1.417e-1
8.170e-1, -1.414e-1
8.180e-1, -1.411e-1
8.190e-1, -1.408e-1
8.200e-1, -1.405e-1
8.210e-1, -1.402e-1
8.220e-1, -1.399e-1
8.230e-1, -1.396e-1
8.240e-1, -1.394e-1
8.250e-1, -1.391e-1
8.260e-1, -1.388e-1
8.270e-1, -1.385e-1
8.280e-1, -1.382e-1
8.290e-1, -1.379e-1
8.300e-1, -1.376e-1
8.310e-1, -1.373e-1
8.320e-1, -1.370e-1
8.330e-1, -1.367e-1
8.340e-1, -1.364e-1
8.350e-1, -1.361e-1
8.360e-1, -1.358e-1
8.370e-1, -1.355e-1
8.380e-1, -1.352e-1
8.390e-1, -1.350e-1
8.400e-1, -1.347e-1
8.410e-1, -1.344e-1
8.420e-1, -1.341e-1
8.430e-1, -1.338e-1
8.440e-1, -1.335e-1
8.450e-1, -1.332e-1
8.460e-1, -1.329e-1
8.470e-1, -1.326e-1
8.480e-1, -1.323e-1
8.490e-1, -1.320e-1
8.500e-1, -1.317e-1
8.510e-1, -1.314e-1
8.520e-1, -1.311e-1
8.530e-1, -1.308e-1
8.540e-1, -1.305e-1
8.550e-1, -1.302e-1
8.560e-1, -1.299e-1
8.570e-1, -1.297e-1
8.580e-1, -1.294e-1
8.590e-1, -1.291e-1
8.600e-1, -1.288e-1
8.610e-1, -1.285e-1
8.620e-1, -1.282e-1
8.630e-1, -1.279e-1
8.640e-1, -1.276e-1
8.650e-1, -1.273e-1
8.660e-1, -1.270e-1
8.670e-1, -1.268e-1
8.680e-1, -1.265e-1
8.690e-1, -1.262e-1
8.700e-1, -1.259e-1
8.710e-1, -1.256e-1
8.720e-1, -1.253e-1
8.730e-1, -1.250e-1
8.740e-1, -1.247e-1
8.750e-1, -1.244e-1
8.760e-1, -1.242e-1
8.770e-1, -1.238e-1
8.780e-1, -1.236e-1
8.790e-1, -1.233e-1
8.800e-1, -1.230e-1
8.810e-1, -1.227e-1
8.820e-1, -1.224e-1
8.830e-1, -1.221e-1
8.840e-1, -1.218e-1
8.850e-1, -1.215e-1
8.860e-1, -1.213e-1
8.870e-1, -1.210e-1
8.880e-1, -1.207e-1
8.890e-1, -1.204e-1
8.900e-1, -1.201e-1
8.910e-1, -1.198e-1
8.920e-1, -1.195e-1
8.930e-1, -1.192e-1
8.940e-1, -1.189e-1
8.950e-1, -1.187e-1
8.960e-1, -1.184e-1
8.970e-1, -1.181e-1
8.980e-1, -1.178e-1
8.990e-1, -1.175e-1
9.000e-1, -1.172e-1
9.010e-1, -1.169e-1
9.020e-1, -1.167e-1
9.030e-1, -1.163e-1
9.040e-1, -1.161e-1
9.050e-1, -1.158e-1
9.060e-1, -1.155e-1
9.070e-1, -1.152e-1
9.080e-1, -1.149e-1
9.090e-1, -1.147e-1
9.100e-1, -1.143e-1
9.110e-1, -1.141e-1
9.120e-1, -1.138e-1
9.130e-1, -1.134e-1
9.140e-1, -1.132e-1
9.150e-1, -1.129e-1
9.160e-1, -1.126e-1
9.170e-1, -1.123e-1
9.180e-1, -1.120e-1
9.190e-1, -1.117e-1
9.200e-1, -1.115e-1
9.210e-1, -1.112e-1
9.220e-1, -1.109e-1
9.230e-1, -1.106e-1
9.240e-1, -1.103e-1
9.250e-1, -1.100e-1
9.260e-1, -1.098e-1
9.270e-1, -1.095e-1
9.280e-1, -1.092e-1
9.290e-1, -1.089e-1
9.300e-1, -1.086e-1
9.310e-1, -1.083e-1
9.320e-1, -1.080e-1
9.330e-1, -1.078e-1
9.340e-1, -1.075e-1
9.350e-1, -1.072e-1
9.360e-1, -1.069e-1
9.370e-1, -1.066e-1
9.380e-1, -1.063e-1
9.390e-1, -1.060e-1
9.400e-1, -1.058e-1
9.410e-1, -1.055e-1
9.420e-1, -1.052e-1
9.430e-1, -1.049e-1
9.440e-1, -1.046e-1
9.450e-1, -1.043e-1
9.460e-1, -1.040e-1
9.470e-1, -1.038e-1
9.480e-1, -1.035e-1
9.490e-1, -1.032e-1
9.500e-1, -1.029e-1
9.510e-1, -1.026e-1
9.520e-1, -1.024e-1
9.530e-1, -1.021e-1
9.540e-1, -1.018e-1
9.550e-1, -1.015e-1
9.560e-1, -1.012e-1
9.570e-1, -1.009e-1
9.580e-1, -1.007e-1
9.590e-1, -1.004e-1
9.600e-1, -1.001e-1
9.610e-1, -9.980e-2
9.620e-1, -9.953e-2
9.630e-1, -9.924e-2
9.640e-1, -9.897e-2
9.650e-1, -9.868e-2
9.660e-1, -9.845e-2
9.670e-1, -9.815e-2
9.680e-1, -9.784e-2
9.690e-1, -9.758e-2
9.700e-1, -9.726e-2
9.710e-1, -9.703e-2
9.720e-1, -9.675e-2
9.730e-1, -9.649e-2
9.740e-1, -9.615e-2
9.750e-1, -9.587e-2
9.760e-1, -9.559e-2
9.770e-1, -9.532e-2
9.780e-1, -9.508e-2
9.790e-1, -9.477e-2
