Apr. 17, 2018   13:11:47
Chronopotentiometry
File: c:\users\lingd\google drive\Data Source:  Experiment
Instrument Model:  CHI660E
Header: 
Note: 

Cathodic Current (A) = 0.1072
Anodic Current (A) = 0.1072
Init P/N = N
Data Storage Interval (s) = 0.001
High E Limit (V) = 0
Low E Limit (V) = -1
Cathodic Time (s) = 10
Anodic Time (s) = 10
Current Switching Polarity = Potential
Segment = 5

Time/sec, Potential/V

1.000e-3, -8.537e-1
2.000e-3, -8.648e-1
3.000e-3, -8.660e-1
4.000e-3, -8.642e-1
5.000e-3, -8.648e-1
6.000e-3, -8.680e-1
7.000e-3, -8.720e-1
8.000e-3, -8.760e-1
9.000e-3, -8.801e-1
1.000e-2, -8.839e-1
1.100e-2, -8.877e-1
1.200e-2, -8.912e-1
1.300e-2, -8.946e-1
1.400e-2, -8.979e-1
1.500e-2, -9.011e-1
1.600e-2, -9.041e-1
1.700e-2, -9.071e-1
1.800e-2, -9.099e-1
1.900e-2, -9.126e-1
2.000e-2, -9.153e-1
2.100e-2, -9.179e-1
2.200e-2, -9.204e-1
2.300e-2, -9.228e-1
2.400e-2, -9.252e-1
2.500e-2, -9.276e-1
2.600e-2, -9.298e-1
2.700e-2, -9.321e-1
2.800e-2, -9.342e-1
2.900e-2, -9.363e-1
3.000e-2, -9.384e-1
3.100e-2, -9.404e-1
3.200e-2, -9.424e-1
3.300e-2, -9.443e-1
3.400e-2, -9.462e-1
3.500e-2, -9.480e-1
3.600e-2, -9.499e-1
3.700e-2, -9.516e-1
3.800e-2, -9.534e-1
3.900e-2, -9.551e-1
4.000e-2, -9.568e-1
4.100e-2, -9.585e-1
4.200e-2, -9.601e-1
4.300e-2, -9.617e-1
4.400e-2, -9.633e-1
4.500e-2, -9.649e-1
4.600e-2, -9.664e-1
4.700e-2, -9.679e-1
4.800e-2, -9.694e-1
4.900e-2, -9.708e-1
5.000e-2, -9.723e-1
5.100e-2, -9.737e-1
5.200e-2, -9.751e-1
5.300e-2, -9.765e-1
5.400e-2, -9.779e-1
5.500e-2, -9.792e-1
5.600e-2, -9.805e-1
5.700e-2, -9.818e-1
5.800e-2, -9.831e-1
5.900e-2, -9.844e-1
6.000e-2, -9.856e-1
6.100e-2, -9.868e-1
6.200e-2, -9.880e-1
6.300e-2, -9.893e-1
6.400e-2, -9.904e-1
6.500e-2, -9.916e-1
6.600e-2, -9.928e-1
6.700e-2, -9.939e-1
6.800e-2, -9.951e-1
6.900e-2, -9.962e-1
7.000e-2, -9.973e-1
7.100e-2, -9.984e-1
7.200e-2, -9.995e-1
7.300e-2, -6.016e-1
7.400e-2, -5.830e-1
7.500e-2, -5.710e-1
7.600e-2, -5.588e-1
7.700e-2, -5.490e-1
7.800e-2, -5.408e-1
7.900e-2, -5.341e-1
8.000e-2, -5.292e-1
8.100e-2, -5.236e-1
8.200e-2, -5.172e-1
8.300e-2, -5.107e-1
8.400e-2, -5.042e-1
8.500e-2, -4.977e-1
8.600e-2, -4.914e-1
8.700e-2, -4.855e-1
8.800e-2, -4.797e-1
8.900e-2, -4.743e-1
9.000e-2, -4.691e-1
9.100e-2, -4.640e-1
9.200e-2, -4.592e-1
9.300e-2, -4.545e-1
9.400e-2, -4.499e-1
9.500e-2, -4.456e-1
9.600e-2, -4.413e-1
9.700e-2, -4.372e-1
9.800e-2, -4.332e-1
9.900e-2, -4.293e-1
1.000e-1, -4.255e-1
1.010e-1, -4.218e-1
1.020e-1, -4.182e-1
1.030e-1, -4.146e-1
1.040e-1, -4.112e-1
1.050e-1, -4.078e-1
1.060e-1, -4.045e-1
1.070e-1, -4.012e-1
1.080e-1, -3.981e-1
1.090e-1, -3.950e-1
1.100e-1, -3.920e-1
1.110e-1, -3.890e-1
1.120e-1, -3.860e-1
1.130e-1, -3.831e-1
1.140e-1, -3.803e-1
1.150e-1, -3.775e-1
1.160e-1, -3.748e-1
1.170e-1, -3.721e-1
1.180e-1, -3.694e-1
1.190e-1, -3.667e-1
1.200e-1, -3.641e-1
1.210e-1, -3.616e-1
1.220e-1, -3.591e-1
1.230e-1, -3.567e-1
1.240e-1, -3.543e-1
1.250e-1, -3.519e-1
1.260e-1, -3.495e-1
1.270e-1, -3.471e-1
1.280e-1, -3.449e-1
1.290e-1, -3.426e-1
1.300e-1, -3.404e-1
1.310e-1, -3.381e-1
1.320e-1, -3.359e-1
1.330e-1, -3.338e-1
1.340e-1, -3.316e-1
1.350e-1, -3.295e-1
1.360e-1, -3.274e-1
1.370e-1, -3.253e-1
1.380e-1, -3.233e-1
1.390e-1, -3.212e-1
1.400e-1, -3.193e-1
1.410e-1, -3.173e-1
1.420e-1, -3.153e-1
1.430e-1, -3.134e-1
1.440e-1, -3.115e-1
1.450e-1, -3.095e-1
1.460e-1, -3.076e-1
1.470e-1, -3.058e-1
1.480e-1, -3.039e-1
1.490e-1, -3.020e-1
1.500e-1, -3.002e-1
1.510e-1, -2.984e-1
1.520e-1, -2.966e-1
1.530e-1, -2.948e-1
1.540e-1, -2.930e-1
1.550e-1, -2.912e-1
1.560e-1, -2.895e-1
1.570e-1, -2.877e-1
1.580e-1, -2.860e-1
1.590e-1, -2.843e-1
1.600e-1, -2.826e-1
1.610e-1, -2.809e-1
1.620e-1, -2.793e-1
1.630e-1, -2.776e-1
1.640e-1, -2.760e-1
1.650e-1, -2.744e-1
1.660e-1, -2.728e-1
1.670e-1, -2.712e-1
1.680e-1, -2.697e-1
1.690e-1, -2.682e-1
1.700e-1, -2.667e-1
1.710e-1, -2.652e-1
1.720e-1, -2.637e-1
1.730e-1, -2.622e-1
1.740e-1, -2.608e-1
1.750e-1, -2.594e-1
1.760e-1, -2.582e-1
1.770e-1, -2.570e-1
1.780e-1, -2.559e-1
1.790e-1, -2.547e-1
1.800e-1, -2.536e-1
1.810e-1, -2.524e-1
1.820e-1, -2.513e-1
1.830e-1, -2.500e-1
1.840e-1, -2.487e-1
1.850e-1, -2.475e-1
1.860e-1, -2.462e-1
1.870e-1, -2.450e-1
1.880e-1, -2.436e-1
1.890e-1, -2.423e-1
1.900e-1, -2.410e-1
1.910e-1, -2.396e-1
1.920e-1, -2.382e-1
1.930e-1, -2.368e-1
1.940e-1, -2.354e-1
1.950e-1, -2.340e-1
1.960e-1, -2.324e-1
1.970e-1, -2.309e-1
1.980e-1, -2.291e-1
1.990e-1, -2.272e-1
2.000e-1, -2.252e-1
2.010e-1, -2.233e-1
2.020e-1, -2.213e-1
2.030e-1, -2.196e-1
2.040e-1, -2.182e-1
2.050e-1, -2.172e-1
2.060e-1, -2.165e-1
2.070e-1, -2.159e-1
2.080e-1, -2.153e-1
2.090e-1, -2.146e-1
2.100e-1, -2.136e-1
2.110e-1, -2.126e-1
2.120e-1, -2.116e-1
2.130e-1, -2.107e-1
2.140e-1, -2.099e-1
2.150e-1, -2.092e-1
2.160e-1, -2.087e-1
2.170e-1, -2.082e-1
2.180e-1, -2.076e-1
2.190e-1, -2.069e-1
2.200e-1, -2.062e-1
2.210e-1, -2.055e-1
2.220e-1, -2.046e-1
2.230e-1, -2.038e-1
2.240e-1, -2.029e-1
2.250e-1, -2.020e-1
2.260e-1, -2.011e-1
2.270e-1, -2.001e-1
2.280e-1, -1.993e-1
2.290e-1, -1.983e-1
2.300e-1, -1.974e-1
2.310e-1, -1.965e-1
2.320e-1, -1.956e-1
2.330e-1, -1.946e-1
2.340e-1, -1.937e-1
2.350e-1, -1.928e-1
2.360e-1, -1.918e-1
2.370e-1, -1.909e-1
2.380e-1, -1.900e-1
2.390e-1, -1.891e-1
2.400e-1, -1.881e-1
2.410e-1, -1.872e-1
2.420e-1, -1.864e-1
2.430e-1, -1.855e-1
2.440e-1, -1.846e-1
2.450e-1, -1.837e-1
2.460e-1, -1.828e-1
2.470e-1, -1.819e-1
2.480e-1, -1.810e-1
2.490e-1, -1.801e-1
2.500e-1, -1.792e-1
2.510e-1, -1.784e-1
2.520e-1, -1.775e-1
2.530e-1, -1.767e-1
2.540e-1, -1.758e-1
2.550e-1, -1.749e-1
2.560e-1, -1.741e-1
2.570e-1, -1.732e-1
2.580e-1, -1.724e-1
2.590e-1, -1.715e-1
2.600e-1, -1.706e-1
2.610e-1, -1.698e-1
2.620e-1, -1.689e-1
2.630e-1, -1.681e-1
2.640e-1, -1.673e-1
2.650e-1, -1.665e-1
2.660e-1, -1.656e-1
2.670e-1, -1.648e-1
2.680e-1, -1.640e-1
2.690e-1, -1.632e-1
2.700e-1, -1.625e-1
2.710e-1, -1.616e-1
2.720e-1, -1.608e-1
2.730e-1, -1.600e-1
2.740e-1, -1.592e-1
2.750e-1, -1.585e-1
2.760e-1, -1.576e-1
2.770e-1, -1.569e-1
2.780e-1, -1.561e-1
2.790e-1, -1.553e-1
2.800e-1, -1.545e-1
2.810e-1, -1.538e-1
2.820e-1, -1.530e-1
2.830e-1, -1.522e-1
2.840e-1, -1.514e-1
2.850e-1, -1.507e-1
2.860e-1, -1.499e-1
2.870e-1, -1.492e-1
2.880e-1, -1.484e-1
2.890e-1, -1.477e-1
2.900e-1, -1.469e-1
2.910e-1, -1.462e-1
2.920e-1, -1.454e-1
2.930e-1, -1.447e-1
2.940e-1, -1.440e-1
2.950e-1, -1.432e-1
2.960e-1, -1.425e-1
2.970e-1, -1.417e-1
2.980e-1, -1.410e-1
2.990e-1, -1.403e-1
3.000e-1, -1.396e-1
3.010e-1, -1.389e-1
3.020e-1, -1.382e-1
3.030e-1, -1.375e-1
3.040e-1, -1.367e-1
3.050e-1, -1.360e-1
3.060e-1, -1.353e-1
3.070e-1, -1.346e-1
3.080e-1, -1.339e-1
3.090e-1, -1.332e-1
3.100e-1, -1.325e-1
3.110e-1, -1.318e-1
3.120e-1, -1.312e-1
3.130e-1, -1.305e-1
3.140e-1, -1.298e-1
3.150e-1, -1.291e-1
3.160e-1, -1.284e-1
3.170e-1, -1.277e-1
3.180e-1, -1.271e-1
3.190e-1, -1.264e-1
3.200e-1, -1.258e-1
3.210e-1, -1.250e-1
3.220e-1, -1.244e-1
3.230e-1, -1.237e-1
3.240e-1, -1.231e-1
3.250e-1, -1.224e-1
3.260e-1, -1.218e-1
3.270e-1, -1.212e-1
3.280e-1, -1.205e-1
3.290e-1, -1.198e-1
3.300e-1, -1.192e-1
3.310e-1, -1.185e-1
3.320e-1, -1.179e-1
3.330e-1, -1.173e-1
3.340e-1, -1.167e-1
3.350e-1, -1.160e-1
3.360e-1, -1.153e-1
3.370e-1, -1.147e-1
3.380e-1, -1.141e-1
3.390e-1, -1.135e-1
3.400e-1, -1.128e-1
3.410e-1, -1.122e-1
3.420e-1, -1.116e-1
3.430e-1, -1.109e-1
3.440e-1, -1.103e-1
3.450e-1, -1.097e-1
3.460e-1, -1.091e-1
3.470e-1, -1.085e-1
3.480e-1, -1.079e-1
3.490e-1, -1.073e-1
3.500e-1, -1.067e-1
3.510e-1, -1.061e-1
3.520e-1, -1.055e-1
3.530e-1, -1.049e-1
3.540e-1, -1.043e-1
3.550e-1, -1.037e-1
3.560e-1, -1.031e-1
3.570e-1, -1.024e-1
3.580e-1, -1.019e-1
3.590e-1, -1.013e-1
3.600e-1, -1.007e-1
3.610e-1, -1.001e-1
3.620e-1, -9.951e-2
3.630e-1, -9.894e-2
3.640e-1, -9.837e-2
3.650e-1, -9.781e-2
3.660e-1, -9.719e-2
3.670e-1, -9.664e-2
3.680e-1, -9.603e-2
3.690e-1, -9.546e-2
3.700e-1, -9.492e-2
3.710e-1, -9.433e-2
3.720e-1, -9.378e-2
3.730e-1, -9.316e-2
3.740e-1, -9.258e-2
3.750e-1, -9.207e-2
3.760e-1, -9.149e-2
3.770e-1, -9.096e-2
3.780e-1, -9.036e-2
3.790e-1, -8.979e-2
3.800e-1, -8.927e-2
3.810e-1, -8.872e-2
3.820e-1, -8.816e-2
3.830e-1, -8.760e-2
3.840e-1, -8.709e-2
3.850e-1, -8.651e-2
3.860e-1, -8.599e-2
3.870e-1, -8.543e-2
3.880e-1, -8.487e-2
3.890e-1, -8.437e-2
3.900e-1, -8.384e-2
3.910e-1, -8.329e-2
3.920e-1, -8.274e-2
3.930e-1, -8.223e-2
3.940e-1, -8.168e-2
3.950e-1, -8.115e-2
3.960e-1, -8.064e-2
3.970e-1, -8.009e-2
3.980e-1, -7.954e-2
3.990e-1, -7.904e-2
4.000e-1, -7.850e-2
4.010e-1, -7.796e-2
4.020e-1, -7.743e-2
4.030e-1, -7.695e-2
4.040e-1, -7.643e-2
4.050e-1, -7.592e-2
4.060e-1, -7.537e-2
4.070e-1, -7.483e-2
4.080e-1, -7.434e-2
4.090e-1, -7.378e-2
4.100e-1, -7.331e-2
4.110e-1, -7.278e-2
4.120e-1, -7.226e-2
4.130e-1, -7.174e-2
4.140e-1, -7.124e-2
4.150e-1, -7.074e-2
4.160e-1, -7.022e-2
4.170e-1, -6.973e-2
4.180e-1, -6.921e-2
4.190e-1, -6.872e-2
4.200e-1, -6.820e-2
4.210e-1, -6.772e-2
4.220e-1, -6.723e-2
4.230e-1, -6.670e-2
4.240e-1, -6.624e-2
4.250e-1, -6.570e-2
4.260e-1, -6.523e-2
4.270e-1, -6.475e-2
4.280e-1, -6.424e-2
4.290e-1, -6.377e-2
4.300e-1, -6.326e-2
4.310e-1, -6.274e-2
4.320e-1, -6.229e-2
4.330e-1, -6.177e-2
4.340e-1, -6.129e-2
4.350e-1, -6.080e-2
4.360e-1, -6.035e-2
4.370e-1, -5.985e-2
4.380e-1, -5.938e-2
4.390e-1, -5.888e-2
4.400e-1, -5.840e-2
4.410e-1, -5.795e-2
4.420e-1, -5.744e-2
4.430e-1, -5.701e-2
4.440e-1, -5.651e-2
4.450e-1, -5.603e-2
4.460e-1, -5.557e-2
4.470e-1, -5.508e-2
4.480e-1, -5.462e-2
4.490e-1, -5.410e-2
4.500e-1, -5.367e-2
4.510e-1, -5.317e-2
4.520e-1, -5.273e-2
4.530e-1, -5.224e-2
4.540e-1, -5.177e-2
4.550e-1, -5.135e-2
4.560e-1, -5.086e-2
4.570e-1, -5.038e-2
4.580e-1, -4.995e-2
4.590e-1, -4.946e-2
4.600e-1, -4.906e-2
4.610e-1, -4.857e-2
4.620e-1, -4.813e-2
4.630e-1, -4.765e-2
4.640e-1, -4.717e-2
4.650e-1, -4.674e-2
4.660e-1, -4.627e-2
4.670e-1, -4.583e-2
4.680e-1, -4.539e-2
4.690e-1, -4.497e-2
4.700e-1, -4.449e-2
4.710e-1, -4.405e-2
4.720e-1, -4.358e-2
4.730e-1, -4.316e-2
4.740e-1, -4.277e-2
4.750e-1, -4.225e-2
4.760e-1, -4.181e-2
4.770e-1, -4.137e-2
4.780e-1, -4.093e-2
4.790e-1, -4.051e-2
4.800e-1, -4.006e-2
4.810e-1, -3.966e-2
4.820e-1, -3.917e-2
4.830e-1, -3.874e-2
4.840e-1, -3.831e-2
4.850e-1, -3.787e-2
4.860e-1, -3.743e-2
4.870e-1, -3.698e-2
4.880e-1, -3.661e-2
4.890e-1, -3.613e-2
4.900e-1, -3.570e-2
4.910e-1, -3.524e-2
4.920e-1, -3.481e-2
4.930e-1, -3.441e-2
4.940e-1, -3.396e-2
4.950e-1, -3.353e-2
4.960e-1, -3.309e-2
4.970e-1, -3.267e-2
4.980e-1, -3.227e-2
4.990e-1, -3.181e-2
5.000e-1, -3.142e-2
5.010e-1, -3.098e-2
5.020e-1, -3.054e-2
5.030e-1, -3.013e-2
5.040e-1, -2.969e-2
5.050e-1, -2.934e-2
5.060e-1, -2.885e-2
5.070e-1, -2.847e-2
5.080e-1, -2.802e-2
5.090e-1, -2.760e-2
5.100e-1, -2.719e-2
5.110e-1, -2.676e-2
5.120e-1, -2.640e-2
5.130e-1, -2.593e-2
5.140e-1, -2.552e-2
5.150e-1, -2.508e-2
5.160e-1, -2.470e-2
5.170e-1, -2.428e-2
5.180e-1, -2.383e-2
5.190e-1, -2.346e-2
5.200e-1, -2.304e-2
5.210e-1, -2.261e-2
5.220e-1, -2.221e-2
5.230e-1, -2.179e-2
5.240e-1, -2.141e-2
5.250e-1, -2.097e-2
5.260e-1, -2.062e-2
5.270e-1, -2.020e-2
5.280e-1, -1.979e-2
5.290e-1, -1.937e-2
5.300e-1, -1.895e-2
5.310e-1, -1.859e-2
5.320e-1, -1.817e-2
5.330e-1, -1.779e-2
5.340e-1, -1.737e-2
5.350e-1, -1.697e-2
5.360e-1, -1.657e-2
5.370e-1, -1.617e-2
5.380e-1, -1.580e-2
5.390e-1, -1.535e-2
5.400e-1, -1.496e-2
5.410e-1, -1.456e-2
5.420e-1, -1.416e-2
5.430e-1, -1.379e-2
5.440e-1, -1.337e-2
5.450e-1, -1.302e-2
5.460e-1, -1.260e-2
5.470e-1, -1.222e-2
5.480e-1, -1.181e-2
5.490e-1, -1.141e-2
5.500e-1, -1.107e-2
5.510e-1, -1.066e-2
5.520e-1, -1.028e-2
5.530e-1, -9.875e-3
5.540e-1, -9.486e-3
5.550e-1, -9.127e-3
5.560e-1, -8.725e-3
5.570e-1, -8.366e-3
5.580e-1, -7.950e-3
5.590e-1, -7.514e-3
5.600e-1, -7.173e-3
5.610e-1, -6.790e-3
5.620e-1, -6.434e-3
5.630e-1, -6.037e-3
5.640e-1, -5.712e-3
5.650e-1, -5.280e-3
5.660e-1, -4.919e-3
5.670e-1, -4.507e-3
5.680e-1, -4.130e-3
5.690e-1, -3.807e-3
5.700e-1, -3.377e-3
5.710e-1, -3.037e-3
5.720e-1, -2.634e-3
5.730e-1, -2.259e-3
5.740e-1, -1.879e-3
5.750e-1, -1.496e-3
5.760e-1, -1.170e-3
5.770e-1, -7.488e-4
5.780e-1, -3.818e-4
5.790e-1, -2.146e-5
5.800e-1, -4.190e-1
5.810e-1, -4.480e-1
5.820e-1, -4.747e-1
5.830e-1, -4.953e-1
5.840e-1, -5.126e-1
5.850e-1, -5.277e-1
5.860e-1, -5.412e-1
5.870e-1, -5.534e-1
5.880e-1, -5.645e-1
5.890e-1, -5.747e-1
5.900e-1, -5.839e-1
5.910e-1, -5.927e-1
5.920e-1, -6.011e-1
5.930e-1, -6.090e-1
5.940e-1, -6.164e-1
5.950e-1, -6.232e-1
5.960e-1, -6.298e-1
5.970e-1, -6.360e-1
5.980e-1, -6.419e-1
5.990e-1, -6.476e-1
6.000e-1, -6.530e-1
6.010e-1, -6.582e-1
6.020e-1, -6.632e-1
6.030e-1, -6.679e-1
6.040e-1, -6.723e-1
6.050e-1, -6.766e-1
6.060e-1, -6.809e-1
6.070e-1, -6.853e-1
6.080e-1, -6.896e-1
6.090e-1, -6.939e-1
6.100e-1, -6.982e-1
6.110e-1, -7.024e-1
6.120e-1, -7.065e-1
6.130e-1, -7.104e-1
6.140e-1, -7.141e-1
6.150e-1, -7.178e-1
6.160e-1, -7.212e-1
6.170e-1, -7.243e-1
6.180e-1, -7.272e-1
6.190e-1, -7.299e-1
6.200e-1, -7.326e-1
6.210e-1, -7.352e-1
6.220e-1, -7.378e-1
6.230e-1, -7.404e-1
6.240e-1, -7.431e-1
6.250e-1, -7.457e-1
6.260e-1, -7.484e-1
6.270e-1, -7.511e-1
6.280e-1, -7.538e-1
6.290e-1, -7.567e-1
6.300e-1, -7.597e-1
6.310e-1, -7.632e-1
6.320e-1, -7.671e-1
6.330e-1, -7.708e-1
6.340e-1, -7.738e-1
6.350e-1, -7.764e-1
6.360e-1, -7.795e-1
6.370e-1, -7.826e-1
6.380e-1, -7.852e-1
6.390e-1, -7.872e-1
6.400e-1, -7.883e-1
6.410e-1, -7.891e-1
6.420e-1, -7.903e-1
6.430e-1, -7.919e-1
6.440e-1, -7.940e-1
6.450e-1, -7.965e-1
6.460e-1, -7.992e-1
6.470e-1, -8.019e-1
6.480e-1, -8.043e-1
6.490e-1, -8.063e-1
6.500e-1, -8.080e-1
6.510e-1, -8.097e-1
6.520e-1, -8.114e-1
6.530e-1, -8.132e-1
6.540e-1, -8.150e-1
6.550e-1, -8.167e-1
6.560e-1, -8.184e-1
6.570e-1, -8.202e-1
6.580e-1, -8.219e-1
6.590e-1, -8.236e-1
6.600e-1, -8.254e-1
6.610e-1, -8.271e-1
6.620e-1, -8.288e-1
6.630e-1, -8.307e-1
6.640e-1, -8.325e-1
6.650e-1, -8.343e-1
6.660e-1, -8.360e-1
6.670e-1, -8.377e-1
6.680e-1, -8.395e-1
6.690e-1, -8.412e-1
6.700e-1, -8.429e-1
6.710e-1, -8.445e-1
6.720e-1, -8.461e-1
6.730e-1, -8.477e-1
6.740e-1, -8.492e-1
6.750e-1, -8.507e-1
6.760e-1, -8.520e-1
6.770e-1, -8.535e-1
6.780e-1, -8.550e-1
6.790e-1, -8.565e-1
6.800e-1, -8.580e-1
6.810e-1, -8.595e-1
6.820e-1, -8.610e-1
6.830e-1, -8.624e-1
6.840e-1, -8.637e-1
6.850e-1, -8.650e-1
6.860e-1, -8.663e-1
6.870e-1, -8.675e-1
6.880e-1, -8.686e-1
6.890e-1, -8.697e-1
6.900e-1, -8.707e-1
6.910e-1, -8.718e-1
6.920e-1, -8.727e-1
6.930e-1, -8.736e-1
6.940e-1, -8.746e-1
6.950e-1, -8.755e-1
6.960e-1, -8.766e-1
6.970e-1, -8.776e-1
6.980e-1, -8.786e-1
6.990e-1, -8.797e-1
7.000e-1, -8.807e-1
7.010e-1, -8.818e-1
7.020e-1, -8.828e-1
7.030e-1, -8.839e-1
7.040e-1, -8.850e-1
7.050e-1, -8.861e-1
7.060e-1, -8.872e-1
7.070e-1, -8.883e-1
7.080e-1, -8.894e-1
7.090e-1, -8.905e-1
7.100e-1, -8.916e-1
7.110e-1, -8.926e-1
7.120e-1, -8.937e-1
7.130e-1, -8.947e-1
7.140e-1, -8.958e-1
7.150e-1, -8.969e-1
7.160e-1, -8.979e-1
7.170e-1, -8.990e-1
7.180e-1, -9.000e-1
7.190e-1, -9.011e-1
7.200e-1, -9.021e-1
7.210e-1, -9.031e-1
7.220e-1, -9.042e-1
7.230e-1, -9.052e-1
7.240e-1, -9.062e-1
7.250e-1, -9.072e-1
7.260e-1, -9.081e-1
7.270e-1, -9.091e-1
7.280e-1, -9.101e-1
7.290e-1, -9.111e-1
7.300e-1, -9.121e-1
7.310e-1, -9.130e-1
7.320e-1, -9.140e-1
7.330e-1, -9.149e-1
7.340e-1, -9.159e-1
7.350e-1, -9.169e-1
7.360e-1, -9.178e-1
7.370e-1, -9.187e-1
7.380e-1, -9.196e-1
7.390e-1, -9.206e-1
7.400e-1, -9.215e-1
7.410e-1, -9.224e-1
7.420e-1, -9.233e-1
7.430e-1, -9.242e-1
7.440e-1, -9.251e-1
7.450e-1, -9.260e-1
7.460e-1, -9.269e-1
7.470e-1, -9.278e-1
7.480e-1, -9.287e-1
7.490e-1, -9.295e-1
7.500e-1, -9.304e-1
7.510e-1, -9.313e-1
7.520e-1, -9.321e-1
7.530e-1, -9.330e-1
7.540e-1, -9.338e-1
7.550e-1, -9.347e-1
7.560e-1, -9.355e-1
7.570e-1, -9.364e-1
7.580e-1, -9.372e-1
7.590e-1, -9.380e-1
7.600e-1, -9.389e-1
7.610e-1, -9.396e-1
7.620e-1, -9.404e-1
7.630e-1, -9.413e-1
7.640e-1, -9.421e-1
7.650e-1, -9.429e-1
7.660e-1, -9.437e-1
7.670e-1, -9.445e-1
7.680e-1, -9.452e-1
7.690e-1, -9.460e-1
7.700e-1, -9.468e-1
7.710e-1, -9.476e-1
7.720e-1, -9.484e-1
7.730e-1, -9.491e-1
7.740e-1, -9.499e-1
7.750e-1, -9.506e-1
7.760e-1, -9.513e-1
7.770e-1, -9.521e-1
7.780e-1, -9.528e-1
7.790e-1, -9.536e-1
7.800e-1, -9.543e-1
7.810e-1, -9.550e-1
7.820e-1, -9.558e-1
7.830e-1, -9.565e-1
7.840e-1, -9.573e-1
7.850e-1, -9.580e-1
7.860e-1, -9.587e-1
7.870e-1, -9.594e-1
7.880e-1, -9.601e-1
7.890e-1, -9.608e-1
7.900e-1, -9.615e-1
7.910e-1, -9.623e-1
7.920e-1, -9.629e-1
7.930e-1, -9.637e-1
7.940e-1, -9.643e-1
7.950e-1, -9.650e-1
7.960e-1, -9.657e-1
7.970e-1, -9.664e-1
7.980e-1, -9.671e-1
7.990e-1, -9.677e-1
8.000e-1, -9.684e-1
8.010e-1, -9.691e-1
8.020e-1, -9.697e-1
8.030e-1, -9.704e-1
8.040e-1, -9.710e-1
8.050e-1, -9.717e-1
8.060e-1, -9.723e-1
8.070e-1, -9.730e-1
8.080e-1, -9.736e-1
8.090e-1, -9.742e-1
8.100e-1, -9.749e-1
8.110e-1, -9.756e-1
8.120e-1, -9.762e-1
8.130e-1, -9.768e-1
8.140e-1, -9.775e-1
8.150e-1, -9.781e-1
8.160e-1, -9.787e-1
8.170e-1, -9.794e-1
8.180e-1, -9.800e-1
8.190e-1, -9.806e-1
8.200e-1, -9.812e-1
8.210e-1, -9.818e-1
8.220e-1, -9.824e-1
8.230e-1, -9.830e-1
8.240e-1, -9.836e-1
8.250e-1, -9.842e-1
8.260e-1, -9.848e-1
8.270e-1, -9.854e-1
8.280e-1, -9.859e-1
8.290e-1, -9.866e-1
8.300e-1, -9.871e-1
8.310e-1, -9.878e-1
8.320e-1, -9.883e-1
8.330e-1, -9.889e-1
8.340e-1, -9.895e-1
8.350e-1, -9.900e-1
8.360e-1, -9.906e-1
8.370e-1, -9.912e-1
8.380e-1, -9.918e-1
8.390e-1, -9.923e-1
8.400e-1, -9.929e-1
8.410e-1, -9.934e-1
8.420e-1, -9.940e-1
8.430e-1, -9.946e-1
8.440e-1, -9.951e-1
8.450e-1, -9.957e-1
8.460e-1, -9.962e-1
8.470e-1, -9.968e-1
8.480e-1, -9.973e-1
8.490e-1, -9.979e-1
8.500e-1, -9.985e-1
8.510e-1, -9.990e-1
8.520e-1, -9.995e-1
8.530e-1, -6.053e-1
8.540e-1, -5.898e-1
8.550e-1, -5.777e-1
8.560e-1, -5.650e-1
8.570e-1, -5.542e-1
8.580e-1, -5.443e-1
8.590e-1, -5.352e-1
8.600e-1, -5.270e-1
8.610e-1, -5.199e-1
8.620e-1, -5.136e-1
8.630e-1, -5.074e-1
8.640e-1, -5.009e-1
8.650e-1, -4.942e-1
8.660e-1, -4.878e-1
8.670e-1, -4.814e-1
8.680e-1, -4.754e-1
8.690e-1, -4.696e-1
8.700e-1, -4.639e-1
8.710e-1, -4.584e-1
8.720e-1, -4.531e-1
8.730e-1, -4.480e-1
8.740e-1, -4.429e-1
8.750e-1, -4.381e-1
8.760e-1, -4.334e-1
8.770e-1, -4.289e-1
8.780e-1, -4.244e-1
8.790e-1, -4.201e-1
8.800e-1, -4.159e-1
8.810e-1, -4.117e-1
8.820e-1, -4.077e-1
8.830e-1, -4.037e-1
8.840e-1, -3.999e-1
8.850e-1, -3.962e-1
8.860e-1, -3.925e-1
8.870e-1, -3.889e-1
8.880e-1, -3.853e-1
8.890e-1, -3.818e-1
8.900e-1, -3.783e-1
8.910e-1, -3.750e-1
8.920e-1, -3.717e-1
8.930e-1, -3.683e-1
8.940e-1, -3.651e-1
8.950e-1, -3.619e-1
8.960e-1, -3.588e-1
8.970e-1, -3.557e-1
8.980e-1, -3.527e-1
8.990e-1, -3.497e-1
9.000e-1, -3.467e-1
9.010e-1, -3.438e-1
9.020e-1, -3.409e-1
9.030e-1, -3.380e-1
9.040e-1, -3.352e-1
9.050e-1, -3.324e-1
9.060e-1, -3.297e-1
9.070e-1, -3.269e-1
9.080e-1, -3.242e-1
9.090e-1, -3.215e-1
9.100e-1, -3.189e-1
9.110e-1, -3.163e-1
9.120e-1, -3.136e-1
9.130e-1, -3.111e-1
9.140e-1, -3.084e-1
9.150e-1, -3.059e-1
9.160e-1, -3.033e-1
9.170e-1, -3.008e-1
9.180e-1, -2.983e-1
9.190e-1, -2.958e-1
9.200e-1, -2.933e-1
9.210e-1, -2.909e-1
9.220e-1, -2.884e-1
9.230e-1, -2.860e-1
9.240e-1, -2.837e-1
9.250e-1, -2.814e-1
9.260e-1, -2.791e-1
9.270e-1, -2.769e-1
9.280e-1, -2.747e-1
9.290e-1, -2.725e-1
9.300e-1, -2.704e-1
9.310e-1, -2.682e-1
9.320e-1, -2.660e-1
9.330e-1, -2.641e-1
9.340e-1, -2.625e-1
9.350e-1, -2.611e-1
9.360e-1, -2.597e-1
9.370e-1, -2.582e-1
9.380e-1, -2.566e-1
9.390e-1, -2.550e-1
9.400e-1, -2.533e-1
9.410e-1, -2.514e-1
9.420e-1, -2.496e-1
9.430e-1, -2.478e-1
9.440e-1, -2.460e-1
9.450e-1, -2.440e-1
9.460e-1, -2.421e-1
9.470e-1, -2.402e-1
9.480e-1, -2.383e-1
9.490e-1, -2.363e-1
9.500e-1, -2.342e-1
9.510e-1, -2.321e-1
9.520e-1, -2.297e-1
9.530e-1, -2.273e-1
9.540e-1, -2.246e-1
9.550e-1, -2.219e-1
9.560e-1, -2.193e-1
9.570e-1, -2.170e-1
9.580e-1, -2.155e-1
9.590e-1, -2.144e-1
9.600e-1, -2.135e-1
9.610e-1, -2.125e-1
9.620e-1, -2.114e-1
9.630e-1, -2.101e-1
9.640e-1, -2.086e-1
9.650e-1, -2.070e-1
9.660e-1, -2.055e-1
9.670e-1, -2.042e-1
9.680e-1, -2.030e-1
9.690e-1, -2.020e-1
9.700e-1, -2.012e-1
9.710e-1, -2.003e-1
9.720e-1, -1.993e-1
9.730e-1, -1.982e-1
9.740e-1, -1.971e-1
9.750e-1, -1.960e-1
9.760e-1, -1.947e-1
9.770e-1, -1.935e-1
9.780e-1, -1.922e-1
9.790e-1, -1.909e-1
